File: Data/processed_data/Cycle 745_discharge.csv
Current(A),Test_Time(s),Voltage(V),Discharge_Capacity(Ah),dV/dQ(V/Ah),dQ/dV(Ah/V),Discharge_Energy(Wh),Power(W),Downsampled Voltage (V),Downsampled Capacity (Ah),dQ/dV from downsampled Voltage (Ah/V),dV/dQ from downsampled Cpacity (V/Ah),Downsampled Energy (Wh),Downsampled Power (W),dP/dE from downsampled Energy (W/Wh),dQ/dV from LEAN (Ah/V),Delta_V (V) in LEAN
-0.14999,13096.735,4.0668,0.34739,0.0,0.0,1.4217,-0.60998,,,,,1.4217,-0.609989,0.00283182,5.29666,0.0056
-0.14998,13756.734,4.0631,0.37488,,7.4492,1.5334,-0.60938,,,,,1.5334,-0.609398,0.00635669,5.29666,0.0056
-0.14999,14416.735,4.0576,0.40238,,5.2428,1.6451,-0.6086,,,,,1.6451,-0.608619,0.00701681,4.78859,0.0056
-0.14999,15076.736,4.0506,0.42987,0.0,,1.7565,-0.60755,,,,,1.7565,-0.607583,0.0107642,3.7102,0.0056
-0.14999,15736.736,4.0428,0.45736,,3.5966,1.8678,-0.60638,,,,,1.8678,-0.606417,0.0101676,3.38987,0.0056
-0.14999,16396.736,4.0343,0.48485,0.0,0.0,1.9788,-0.6051,4.0343,0.48485,-3.05113,-0.328125,1.9788,-0.605106,0.0121801,3.03943,0.0056
-0.14998,17056.735,4.0253,0.51234,,,2.0896,-0.60371,,,,,2.0896,-0.603719,0.0135487,2.92262,0.0056
-0.15,17716.735,4.0154,0.53984,,0.0,2.2001,-0.60231,,,,,2.2001,-0.602267,0.0132367,2.71826,0.0056
-0.14998,18376.736,4.005,0.56733,,,2.3104,-0.60067,,,,,2.3104,-0.60069,0.014542,2.60145,0.0056
-0.15,19036.736,3.9942,0.59482,0.0,,2.4203,-0.59913,3.9942,0.59482,-2.59828,-0.385,2.4203,-0.599113,0.0136119,2.52573,0.0056
-0.14999,19696.737,3.9833,0.62231,0.0,0.0,2.53,-0.59746,,,,,2.53,-0.597476,0.0143523,2.5522,0.0056
-0.15,20356.736,3.9726,0.6498,,2.5915,2.6393,-0.59589,,,,,2.6393,-0.595864,0.0155855,2.6206,0.0056
-0.14998,21016.735,3.9622,0.67729,0.0,2.6395,2.7484,-0.59425,3.9622,0.67729,-2.74971,-0.363754,2.7484,-0.59428,0.0142262,2.64986,0.0056
-0.14999,21676.736,3.952,0.70479,0.0,2.8393,2.8572,-0.59276,,,,,2.8572,-0.592812,0.0134774,2.83591,0.0056
-0.15,22336.735,3.9427,0.73228,0.0,2.9823,2.9657,-0.59141,,,,,2.9657,-0.591397,0.0122044,3.05406,0.0056
-0.15,22996.734,3.9339,0.75977,,0.0,3.074,-0.59009,3.9339,0.75977,-3.24785,-0.308,3.074,-0.590083,0.0122723,3.20186,0.0056
-0.14998,23656.736,3.9258,0.78726,,0.0,3.182,-0.58879,3.9258,0.78726,-3.53312,-0.283118,3.182,-0.588829,0.0101946,3.51851,0.0056
-0.14999,24316.735,3.9184,0.81475,0.28225,0.0,3.2899,-0.58772,3.9184,0.81475,-3.75494,-0.266684,3.2899,-0.587683,0.0110996,3.70009,0.0056
-0.14999,24976.735,3.9112,0.84225,0.0,0.0,3.3975,-0.58664,,,,,3.3975,-0.58663,0.00844869,3.86784,0.0056
-0.15,25636.736,3.9044,0.86974,,,3.5049,-0.58566,,,,,3.5049,-0.58563,0.00923651,3.85153,0.0056
-0.14999,26296.735,3.897,0.89723,,,3.6121,-0.58451,,,,,3.6121,-0.584537,0.00977835,3.72372,0.0056
-0.14999,26956.735,3.8894,0.92472,0.0,0.0,3.7192,-0.58337,,,,,3.7192,-0.5834,0.010266,3.51572,0.0056
-0.15,27616.735,3.8809,0.95222,0.0,0.0,3.826,-0.58214,,,,,3.826,-0.582122,0.0125646,3.01944,0.0056
-0.15,28276.737,3.8712,0.97971,,,3.9326,-0.58068,,,,,3.9326,-0.580659,0.0143597,2.80213,0.0056
-0.14999,28936.735,3.8614,1.0072,,,4.0389,-0.57917,,,,,4.0389,-0.579169,0.0155091,2.71462,0.0056
-0.14999,29596.734,3.8509,1.0347,,,4.1449,-0.5776,,,,,4.1449,-0.577607,0.0137711,2.63523,0.0056
-0.14999,30256.735,3.8404,1.0622,,0.0,4.2507,-0.57602,,,,,4.2507,-0.576043,0.0152438,2.70363,0.0056
-0.14999,30916.736,3.8304,1.0897,0.0,0.0,4.3561,-0.57452,3.8304,1.0897,-2.77778,-0.36,4.3561,-0.574542,0.0143733,2.75204,0.0056
-0.14999,31576.736,3.8207,1.1172,0.0,0.0,4.4613,-0.57307,,,,,4.4613,-0.573056,0.0142613,2.86238,0.0056
-0.14999,32236.736,3.8111,1.1447,,,4.5662,-0.57163,,,,,4.5662,-0.571628,0.0146313,2.89252,0.0056
-0.15,32896.737,3.8015,1.1722,,,4.6709,-0.57023,,,,,4.6709,-0.570202,0.0140437,2.91447,0.0056
-0.15,33556.735,3.7924,1.1997,0.0,2.9209,4.7753,-0.56886,,,,,4.7753,-0.568822,0.0135931,2.99103,0.0056
-0.15,34216.736,3.7832,1.2272,,,4.8794,-0.56748,,,,,4.8794,-0.567464,0.0134792,2.99018,0.0056
-0.15001,34876.735,3.774,1.2547,0.0,0.0,4.9833,-0.56614,3.774,1.2547,-3.01292,-0.332,4.9833,-0.566071,0.0128416,3.02481,0.0056
-0.15,35536.735,3.7648,1.2822,,,5.087,-0.56472,,,,,5.087,-0.564701,0.012785,3.00933,0.0056
-0.14999,36196.737,3.7556,1.3097,0.0,0.0,5.1903,-0.5633,,,,,5.1903,-0.56332,0.014342,2.97919,0.0056
-0.15,36856.735,3.7465,1.3372,,,5.2935,-0.56198,,,,,5.2935,-0.561936,0.0142302,2.9564,0.0056
-0.14999,37516.737,3.7372,1.3647,,2.9367,5.3964,-0.56054,,,,,5.3964,-0.560542,0.0131779,2.94093,0.0056
-0.15,38176.736,3.7276,1.3921,0.34181,,5.499,-0.55914,,,,,5.499,-0.559158,0.0135662,2.92994,0.0056
-0.14999,38836.736,3.7183,1.4196,,0.0,5.6014,-0.55771,3.7183,1.4196,-2.91126,-0.343778,5.6014,-0.557745,0.014313,2.9674,0.0056
-0.14998,39496.736,3.7092,1.4471,0.0,,5.7035,-0.55631,,,,,5.7035,-0.556358,0.0132731,3.05043,0.0056
-0.14999,40156.736,3.7002,1.4746,,0.0,5.8053,-0.55499,,,,,5.8053,-0.55501,0.0134723,3.09968,0.0056
-0.14999,40816.736,3.6915,1.5021,0.0,,5.9069,-0.55369,,,,,5.9069,-0.553689,0.0115803,3.24663,0.0056
-0.14999,41476.735,3.6832,1.5296,0.0,,6.0083,-0.55244,,,,,6.0083,-0.552448,0.011451,3.36424,0.0056
-0.15,42136.738,3.6753,1.5571,,,6.1094,-0.5513,,,,,6.1094,-0.551272,0.0120524,3.58692,0.0056
-0.14999,42796.735,3.6677,1.5846,0.27919,0.0,6.2104,-0.55012,,,,,6.2104,-0.550108,0.00993159,3.69641,0.0056
-0.14999,43456.736,3.6603,1.6121,,,6.3111,-0.54901,,,,,6.3111,-0.549026,0.0109421,3.8169,0.0056
-0.14999,44116.735,3.6534,1.6396,,0.0,6.4116,-0.54797,,,,,6.4116,-0.547974,0.0101754,4.12345,0.0056
-0.14999,44776.736,3.6467,1.6671,,,6.512,-0.54697,,,,,6.512,-0.546986,0.00970056,4.24474,0.0056
-0.14999,45436.734,3.6404,1.6946,0.0,,6.6122,-0.54602,,,,,6.6122,-0.545988,0.00964804,4.27488,0.0056
-0.14998,46096.736,3.634,1.7221,0.0,0.0,6.7122,-0.54503,3.634,1.7221,-4.39693,-0.228571,6.7122,-0.54505,0.00853228,4.25121,0.0056
-0.14998,46756.736,3.6276,1.7496,0.23136,0.0,6.812,-0.54407,,,,,6.812,-0.54409,0.00988627,4.22842,0.0056
-0.14999,47416.735,3.6211,1.7771,,0.0,6.9117,-0.54313,,,,,6.9117,-0.543134,0.00924985,4.23658,0.0056
-0.14999,48076.736,3.6145,1.8046,,0.0,7.0111,-0.54214,,,,,7.0111,-0.542181,0.00949577,4.22927,0.0056
-0.14999,48736.735,3.6079,1.8321,0.0,,7.1104,-0.54115,,,,,7.1104,-0.541189,0.0105892,4.16086,0.0056
-0.15,49396.734,3.6014,1.8595,0.0,,7.2095,-0.54021,,,,,7.2095,-0.540185,0.00927868,4.11977,0.0056
-0.14999,50056.736,3.5945,1.887,,0.0,7.3085,-0.53914,,,,,7.3085,-0.539139,0.0102991,4.02942,0.0056
-0.14999,50716.736,3.5874,1.9145,0.25175,,7.4072,-0.53807,,,,,7.4072,-0.538116,0.0099863,3.89626,0.0056
-0.14999,51376.736,3.5803,1.942,,,7.5058,-0.53701,,,,,7.5058,-0.537022,0.0115887,3.70457,0.0056
-0.14999,52036.734,3.573,1.9695,,0.0,7.6041,-0.53591,,,,,7.6041,-0.535903,0.0117414,3.60607,0.0056
-0.15001,52696.736,3.5652,1.997,,,7.7023,-0.53482,,,,,7.7023,-0.534746,0.0117639,3.49573,0.0056
-0.15,53356.737,3.557,2.0245,,3.3836,7.8002,-0.53355,,,,,7.8002,-0.533545,0.0109387,3.36429,0.0056
-0.15,54016.734,3.5487,2.052,,0.0,7.8979,-0.53231,,,,,7.8979,-0.532306,0.0128145,3.30768,0.0056
-0.14998,54676.734,3.5402,2.0795,,0.0,7.9953,-0.53096,,,,,7.9953,-0.53102,0.0138859,3.18271,0.0056
-0.15,55336.735,3.5317,2.107,,3.1799,8.0926,-0.52976,,,,,8.0926,-0.529724,0.0144574,3.14893,0.0056
-0.15,55996.734,3.5229,2.1345,0.0,,8.1895,-0.52844,,,,,8.1895,-0.528383,0.0154614,3.08137,0.0056
-0.15,56656.737,3.5138,2.162,0.0,0.0,8.2863,-0.52707,3.5138,2.162,-2.95684,-0.338222,8.2863,-0.527024,0.0156363,3.00933,0.0056
-0.14999,57316.736,3.5042,2.1895,0.0,,8.3828,-0.52559,,,,,8.3828,-0.525636,0.0146616,2.86606,0.0056
-0.15,57976.735,3.4943,2.217,,,8.479,-0.52415,3.4943,2.217,-2.6704,-0.374667,8.479,-0.524159,0.0166144,2.69547,0.0056
-0.15,58636.735,3.4842,2.2445,,,8.5749,-0.52263,,,,,8.5749,-0.522602,0.0167886,2.6206,0.0056
-0.14999,59296.736,3.4736,2.272,0.0,,8.6706,-0.52101,3.4736,2.272,-2.44792,-0.410667,8.6706,-0.520997,0.0179367,2.51842,0.0056
-0.15,59956.736,3.4624,2.2995,,0.0,8.766,-0.51936,3.4624,2.2995,-2.46989,-0.405,8.766,-0.519322,0.0176967,2.4427,0.0056
-0.14999,60616.736,3.451,2.327,0.0,,8.861,-0.51762,,,,,8.861,-0.517639,0.0167385,2.51757,0.0056
-0.15,61276.735,3.4403,2.3545,,,8.9557,-0.51605,,,,,8.9557,-0.516029,0.015058,2.84691,0.0056
-0.14999,61936.734,3.4309,2.382,0.0,,9.0502,-0.5146,,,,,9.0502,-0.514637,0.0137299,3.0659,0.0056
-0.14999,62596.735,3.4225,2.4095,,,9.1444,-0.51334,,,,,9.1444,-0.513373,0.0129262,3.40707,0.0056
-0.15,63256.736,3.4145,2.437,0.0,,9.2384,-0.51218,,,,,9.2384,-0.512172,0.012394,3.4217,0.0056
-0.14999,63916.735,3.4066,2.4645,,3.381,9.3322,-0.51096,,,,,9.3322,-0.510945,0.0133717,3.19087,0.0056
-0.15,64576.734,3.3979,2.492,0.0,,9.4258,-0.50969,3.3979,2.492,-2.97957,-0.336,9.4258,-0.509674,0.014806,3.00202,0.0056
-0.15,65236.737,3.388,2.5195,0.0,0.0,9.5191,-0.5082,,,,,9.5191,-0.508179,0.0172889,2.51842,0.0056
-0.14999,65896.735,3.3755,2.547,,,9.6121,-0.50629,,,,,9.6121,-0.506327,0.0215676,2.0275,0.0056
-0.14999,66556.736,3.3596,2.5745,,,9.7047,-0.50391,,,,,9.7047,-0.5039,0.0300269,1.49917,0.0056
-0.15,67216.735,3.3376,2.602,0.87287,,9.7968,-0.50064,3.3376,2.602,-1.07509,-0.933333,9.7968,-0.500593,0.0412076,1.0685,0.0056
-0.14998,67876.736,3.3073,2.6295,1.2213,,9.8881,-0.49603,3.3073,2.6295,-0.769943,-1.3,9.8881,-0.496059,0.0581903,0.79294,0.0056
-0.15,68536.736,3.266,2.657,1.651,0.58645,9.9785,-0.4899,3.266,2.657,-0.568182,-1.76,9.9785,-0.489884,0.0786845,0.596734,0.0056
-0.15,69196.735,3.2128,2.6845,2.1016,0.46596,10.068,-0.48192,3.2128,2.6845,-0.458793,-2.18,10.068,-0.481912,0.103233,0.479923,0.0056
-0.14999,69856.735,3.1432,2.7119,2.8028,0.35411,10.155,-0.47145,3.1432,2.7119,-0.347356,-2.88,10.155,-0.471449,0.135944,0.335804,0.0056
-0.14999,70516.737,3.0498,2.7394,3.8556,0.25443,10.24,-0.45744,3.0498,2.7394,-0.251574,-3.98,10.24,-0.457454,0.201346,0.268244,0.0056
-0.15,71176.736,2.9121,2.7669,6.1856,0.15978,10.322,-0.43682,2.9121,2.7669,-0.154615,-6.48,10.322,-0.436871,0.32237,0.166062,0.0056
-0.15,71836.737,2.5774,2.7944,16.751,0.060259,10.399,-0.38661,2.5774,2.7944,-0.0598093,-16.72,10.399,-0.386596,0.951666,0.0529306,0.0056
-0.15,71949.862,2.5,2.7991,16.171,0.061643,10.411,-0.375,2.5,2.7991,-0.0616246,-16.0154,,,,0.102182,0.0056