File: Data/processed_data/Cycle 520_discharge.csv
Current(A),Test_Time(s),Voltage(V),Discharge_Capacity(Ah),dV/dQ(V/Ah),dQ/dV(Ah/V),Discharge_Energy(Wh),Power(W),Downsampled Voltage (V),Downsampled Capacity (Ah),dQ/dV from downsampled Voltage (Ah/V),dV/dQ from downsampled Cpacity (V/Ah),Downsampled Energy (Wh),Downsampled Power (W),dP/dE from downsampled Energy (W/Wh),dQ/dV from LEAN (Ah/V),Delta_V (V) in LEAN
-0.14999,12257.959,4.0726,0.31986,0.0,,1.3107,-0.61085,,,,,1.3107,-0.610866,0.00626628,,0.0049
-0.14999,12917.959,4.0704,0.34734,0.0,,1.4226,-0.61052,,,,,1.4226,-0.610522,0.00357808,,0.0049
-0.14999,13577.959,4.068,0.37483,,0.0,1.5345,-0.61016,,,,,1.5345,-0.610154,0.00318799,,0.0049
-0.14999,14237.959,4.0644,0.40232,0.0,0.0,1.6463,-0.60962,,,,,1.6463,-0.609661,0.00495743,,0.0049
-0.14999,14897.959,4.0595,0.42981,,,1.758,-0.60888,,,,,1.758,-0.608911,0.00825781,,0.0049
-0.14999,15557.959,4.0531,0.4573,0.0,0.0,1.8694,-0.60792,,,,,1.8694,-0.607933,0.0102855,,0.0049
-0.14999,16217.96,4.0454,0.48479,,0.0,1.9808,-0.60677,,,,,1.9808,-0.606754,0.0109338,,0.0049
-0.14999,16877.96,4.0367,0.51228,,3.1158,2.0919,-0.60546,,,,,2.0919,-0.605464,0.0116768,,0.0049
-0.15,17537.959,4.0271,0.53977,,,2.2027,-0.60407,,,,,2.2027,-0.604052,0.0134102,7.06758,0.0049
-0.14999,18197.96,4.0169,0.56726,,2.6607,2.3133,-0.60249,,,,,2.3133,-0.602527,0.0142594,5.17419,0.0049
-0.14999,18857.959,4.0062,0.59475,0.0,2.5029,2.4235,-0.60089,4.0062,0.59475,-2.41034,-0.415,2.4235,-0.6009,0.0156418,3.6337,0.0049
-0.15,19517.959,3.9949,0.62224,,0.0,2.5335,-0.59924,,,,,2.5335,-0.599201,0.0147809,3.14083,0.0049
-0.15,20177.959,3.9834,0.64973,0.0,,2.6432,-0.59751,,,,,2.6432,-0.597501,0.0158356,2.74566,0.0049
-0.15,20837.959,3.9722,0.67722,,0.0,2.7525,-0.59583,,,,,2.7525,-0.595821,0.0146138,2.58567,0.0049
-0.14999,21497.959,3.9617,0.70471,0.38964,2.6093,2.8616,-0.59422,3.9617,0.70471,-2.5464,-0.393022,2.8616,-0.594212,0.015228,2.49756,0.0049
-0.14999,22157.96,3.9516,0.7322,0.36826,2.7611,2.9704,-0.5927,,,,,2.9704,-0.592704,0.0132152,2.40746,0.0049
-0.14999,22817.959,3.9421,0.75969,0.34404,,3.0789,-0.59128,3.9421,0.75969,-3.08616,-0.324133,3.0789,-0.591292,0.0132438,2.41706,0.0049
-0.14999,23477.96,3.9334,0.78718,,0.0,3.1871,-0.58997,,,,,3.1871,-0.589985,0.0114885,2.50616,0.0049
-0.15,24137.96,3.9253,0.81468,,0.0,3.2951,-0.5888,,,,,3.2951,-0.588785,0.0115064,2.58567,0.0049
-0.14999,24797.96,3.9177,0.84217,0.0,0.0,3.4029,-0.58762,3.9177,0.84217,-3.76742,-0.266747,3.4029,-0.587638,0.0100031,2.63402,0.0049
-0.14999,25457.959,3.9107,0.86966,0.0,,3.5105,-0.58657,,,,,3.5105,-0.586599,0.00925542,2.85297,0.0049
-0.14999,26117.96,3.9041,0.89715,,0.0,3.618,-0.58558,,,,,3.618,-0.585571,0.00871252,2.94541,0.0049
-0.14999,26777.959,3.8975,0.92464,,,3.7252,-0.58459,,,,,3.7252,-0.58458,0.00985509,3.06133,0.0049
-0.14999,27437.96,3.8904,0.95214,0.0,0.0,3.8323,-0.58352,3.8904,0.95214,-3.71273,-0.270097,3.8323,-0.583531,0.00996483,3.31804,0.0049
-0.15,28097.959,3.8827,0.97963,,,3.9391,-0.58241,,,,,3.9391,-0.582382,0.0121633,3.51017,0.0049
-0.15,28757.959,3.8739,1.0071,0.0,,4.0457,-0.58109,3.8739,1.0071,-2.97981,-0.336883,4.0457,-0.581058,0.0125225,3.83017,0.0049
-0.15,29417.959,3.8638,1.0346,,,4.1521,-0.57957,,,,,4.1521,-0.579552,0.0150651,4.03091,0.0049
-0.14999,30077.959,3.8532,1.0621,,,4.2582,-0.57794,,,,,4.2582,-0.577953,0.0164912,3.97295,0.0049
-0.14999,30737.96,3.8425,1.0896,,0.0,4.3639,-0.57634,3.8425,1.0896,-2.58206,-0.387333,4.3639,-0.576342,0.0158739,3.6036,0.0049
-0.14999,31397.959,3.832,1.1171,0.38295,,4.4694,-0.57476,,,,,4.4694,-0.574765,0.0140273,2.90034,0.0049
-0.15,32057.959,3.8217,1.1446,0.36973,2.7154,4.5746,-0.57326,3.8217,1.1446,-2.73658,-0.365556,4.5746,-0.573262,0.0141511,2.67477,0.0049
-0.14999,32717.959,3.8118,1.1721,0.36086,,4.6796,-0.57173,,,,,4.6796,-0.571754,0.0138806,2.57706,0.0049
-0.14998,33377.959,3.802,1.1996,0.35667,,4.7842,-0.57022,3.802,1.1996,-2.79718,-0.358444,4.7842,-0.570287,0.014489,2.53632,0.0049
-0.14999,34037.96,3.7927,1.227,,0.0,4.8886,-0.56887,,,,,4.8886,-0.568881,0.0134769,2.65755,0.0049
-0.14999,34697.959,3.7834,1.2545,0.0,0.0,4.9927,-0.56747,,,,,4.9927,-0.567465,0.013781,2.73706,0.0049
-0.14999,35357.959,3.7742,1.282,,,5.0966,-0.56609,3.7742,1.282,-3.01292,-0.332,5.0966,-0.566099,0.0130437,2.76387,0.0049
-0.14999,36017.959,3.765,1.3095,0.0,0.0,5.2002,-0.56471,,,,,5.2002,-0.564721,0.0125185,2.81223,0.0049
-0.14999,36677.959,3.756,1.337,,3.0167,5.3036,-0.56336,,,,,5.3036,-0.563347,0.0135446,2.89272,0.0049
-0.15,37337.96,3.7467,1.3645,0.0,,5.4067,-0.56201,,,,,5.4067,-0.562008,0.0122204,2.93247,0.0049
-0.15,37997.959,3.7374,1.392,,0.0,5.5096,-0.56061,,,,,5.5096,-0.560602,0.0148336,2.97223,0.0049
-0.14999,38657.959,3.7281,1.4195,0.0,0.0,5.6122,-0.55918,,,,,5.6122,-0.559178,0.0141297,3.02158,0.0049
-0.14999,39317.959,3.7188,1.447,,,5.7146,-0.55778,,,,,5.7146,-0.557776,0.013194,3.05272,0.0049
-0.14999,39977.96,3.7096,1.4745,0.0,0.0,5.8167,-0.5564,3.7096,1.4745,-3.09159,-0.323556,5.8167,-0.556407,0.0138131,3.00337,0.0049
-0.14999,40637.959,3.7007,1.502,,,5.9186,-0.55507,,,,,5.9186,-0.555066,0.0122518,2.96362,0.0049
-0.14999,41297.96,3.6919,1.5294,0.31561,,6.0202,-0.55375,,,,,6.0202,-0.553799,0.0124661,2.91427,0.0049
-0.14999,41957.959,3.6837,1.5569,,,6.1215,-0.55252,,,,,6.1215,-0.55253,0.0119052,2.95501,0.0049
-0.15,42617.959,3.6759,1.5844,0.0,,6.2227,-0.55139,,,,,6.2227,-0.551353,0.0112674,2.96362,0.0049
-0.14998,43277.959,3.6683,1.6119,,0.0,6.3237,-0.55017,,,,,6.3237,-0.550208,0.010879,3.00337,0.0049
-0.15,43937.959,3.6611,1.6394,,3.8308,6.4244,-0.54917,,,,,6.4244,-0.549128,0.0112636,3.06133,0.0049
-0.14999,44597.959,3.654,1.6669,0.0,,6.5249,-0.54806,3.654,1.6669,-4.00047,-0.250769,6.5249,-0.548088,0.0110432,3.19018,0.0049
-0.15,45257.959,3.6474,1.6944,,0.0,6.6253,-0.54711,,,,,6.6253,-0.547093,0.00921258,3.26108,0.0049
-0.14999,45917.959,3.6409,1.7219,,4.2658,6.7255,-0.5461,,,,,6.7255,-0.546118,0.00930736,3.46182,0.0049
-0.15,46577.959,3.6348,1.7494,0.0,,6.8255,-0.54522,,,,,6.8255,-0.545196,0.008772,3.5456,0.0049
-0.15,47237.959,3.6287,1.7769,0.0,,6.9253,-0.54431,,,,,6.9253,-0.544269,0.00967979,3.62943,0.0049
-0.14999,47897.959,3.6226,1.8043,0.0,,7.025,-0.54335,,,,,7.025,-0.543344,0.00896766,3.76355,0.0049
-0.15,48557.959,3.6164,1.8318,0.0,4.463,7.1245,-0.54246,,,,,7.1245,-0.542426,0.0090676,4.00305,0.0049
-0.14999,49217.959,3.6102,1.8593,,0.0,7.2238,-0.54149,3.6102,1.8593,-4.27337,-0.234286,7.2238,-0.541483,0.00954545,4.11469,0.0049
-0.15,49877.959,3.6037,1.8868,0.0,0.0,7.323,-0.54056,,,,,7.323,-0.540543,0.00910386,4.221,0.0049
-0.15,50537.959,3.5971,1.9143,,,7.422,-0.53957,,,,,7.422,-0.539567,0.0108677,4.37667,0.0049
-0.14999,51197.96,3.5904,1.9418,0.0,,7.5208,-0.53852,,,,,7.5208,-0.53854,0.0110181,4.42508,0.0049
-0.15,51857.96,3.5835,1.9693,,0.0,7.6194,-0.53753,,,,,7.6194,-0.537491,0.0102014,4.4797,0.0049
-0.14999,52517.96,3.5761,1.9968,0.0,3.7947,7.7178,-0.53638,,,,,7.7178,-0.536397,0.0105601,4.43369,0.0049
-0.14999,53177.96,3.5687,2.0243,0.0,,7.816,-0.53527,,,,,7.816,-0.535277,0.0105707,4.40881,0.0049
-0.14999,53837.96,3.561,2.0518,,3.514,7.914,-0.53411,,,,,7.914,-0.534114,0.0125665,4.2114,0.0049
-0.15,54497.959,3.553,2.0793,0.0,0.0,8.0118,-0.53295,,,,,8.0118,-0.532908,0.0128716,4.06534,0.0049
-0.15,55157.959,3.5446,2.1067,,0.0,8.1093,-0.53169,,,,,8.1093,-0.531641,0.0120617,3.98583,0.0049
-0.14999,55817.959,3.5359,2.1342,,3.2055,8.2067,-0.53035,,,,,8.2067,-0.530366,0.0127284,3.75828,0.0049
-0.15,56477.959,3.5272,2.1617,,,8.3037,-0.52908,,,,,8.3037,-0.529081,0.0130331,3.63042,0.0049
-0.15,57137.959,3.5185,2.1892,0.0,,8.4006,-0.52778,,,,,8.4006,-0.527766,0.0141476,3.47042,0.0049
-0.15,57797.959,3.5095,2.2167,,0.0,8.4972,-0.52643,,,,,8.4972,-0.526367,0.0143913,3.35878,0.0049
-0.15,58457.959,3.4998,2.2442,0.0,,8.5935,-0.52497,,,,,8.5935,-0.524972,0.0156033,3.25247,0.0049
-0.15,59117.959,3.4898,2.2717,0.0,,8.6896,-0.52347,3.4898,2.2717,-2.66761,-0.375,8.6896,-0.52348,0.0163237,3.19451,0.0049
-0.14999,59777.959,3.4795,2.2992,0.0,,8.7854,-0.52189,,,,,8.7854,-0.521897,0.016877,3.04312,0.0049
-0.14998,60437.96,3.4688,2.3267,,0.0,8.8809,-0.52025,,,,,8.8809,-0.520263,0.0173673,2.98615,0.0049
-0.14999,61097.959,3.4576,2.3542,0.0,,8.9761,-0.51861,3.4576,2.3542,-2.38551,-0.419524,8.9761,-0.518609,0.017778,2.84337,0.0049
-0.14999,61757.96,3.4462,2.3816,,2.4324,9.071,-0.5169,3.4462,2.3816,-2.49124,-0.402131,9.071,-0.516906,0.0176601,2.75526,0.0049
-0.14999,62417.959,3.4356,2.4091,0.0,2.6703,9.1656,-0.51531,,,,,9.1656,-0.515329,0.0155947,2.59427,0.0049
-0.14999,63077.959,3.4267,2.4366,0.0,,9.2599,-0.51397,,,,,9.2599,-0.514001,0.0134153,2.50616,0.0049
-0.14999,63737.959,3.419,2.4641,0.0,,9.354,-0.51282,,,,,9.354,-0.512802,0.0124176,2.45681,0.0049
-0.14999,64397.96,3.4112,2.4916,,3.5563,9.4479,-0.51165,,,,,9.4479,-0.511642,0.0129096,2.44821,0.0049
-0.14999,65057.959,3.403,2.5191,,0.0,9.5416,-0.51042,,,,,9.5416,-0.510434,0.0125696,2.49656,0.0049
-0.14999,65717.959,3.3943,2.5466,,0.0,9.635,-0.50911,3.3943,2.5466,-2.9616,-0.34,9.635,-0.509129,0.014577,2.79402,0.0049
-0.14999,66377.96,3.3842,2.5741,0.0,0.0,9.7282,-0.5076,,,,,9.7282,-0.507612,0.0172837,3.29321,0.0049
-0.14999,67037.959,3.372,2.6016,0.0,,9.8211,-0.50577,,,,,9.8211,-0.505761,0.0227518,3.51977,0.0049
-0.15,67697.96,3.3557,2.6291,,1.5334,9.9136,-0.50336,,,,,9.9136,-0.503318,0.0307988,3.06133,0.0049
-0.14999,68357.959,3.3334,2.6566,,,10.006,-0.49998,3.3334,2.6566,-1.04916,-0.953333,10.006,-0.499999,0.0413732,2.23025,0.0049
-0.14998,69017.96,3.3033,2.6841,0.0,0.83489,10.097,-0.49543,3.3033,2.6841,-0.80223,-1.24667,10.097,-0.4955,0.0590953,1.29714,0.0049
-0.14999,69677.959,3.2634,2.7115,0.0,0.61231,10.187,-0.48948,3.2634,2.7115,-0.588398,-1.7,10.187,-0.489503,0.0791259,0.853612,0.0049
-0.14998,70337.959,3.209,2.739,2.2189,0.44968,10.276,-0.48129,3.209,2.739,-0.442547,-2.26,10.276,-0.481339,0.107465,0.57337,0.0049
-0.15,70997.96,3.1364,2.7665,2.9609,0.33528,10.363,-0.47046,3.1364,2.7665,-0.331853,-3.02,10.363,-0.470414,0.143418,0.386559,0.0049
-0.14999,71657.959,3.0365,2.794,4.1998,0.23534,10.448,-0.45544,3.0365,2.794,-0.231839,-4.32,10.448,-0.455432,0.21783,0.266313,0.0049
-0.14999,72317.959,2.8808,2.8215,7.625,0.13281,10.53,-0.43209,2.8808,2.8215,-0.1273,-7.9,10.53,-0.432255,0.42503,0.159997,0.0049
-0.15,72914.339,2.5,2.8463,17.669,0.057062,10.597,-0.375,2.5,2.8463,-0.0541176,-18.2858,,,,,0.0049