File: Data/processed_data/Cycle 72_discharge.csv
Current(A),Test_Time(s),Voltage(V),Discharge_Capacity(Ah),dV/dQ(V/Ah),dQ/dV(Ah/V),Discharge_Energy(Wh),Power(W),Downsampled Voltage (V),Downsampled Capacity (Ah),dQ/dV from downsampled Voltage (Ah/V),dV/dQ from downsampled Cpacity (V/Ah),Downsampled Energy (Wh),Downsampled Power (W),dP/dE from downsampled Energy (W/Wh),dQ/dV from LEAN (Ah/V),Delta_V (V) in LEAN
-0.15002,14544,4.0704,0.41255,,,1.692,-0.61064,,,,,1.692,-0.610633,0.00352393,5.25434,0.0056
-0.15001,15204,4.0678,0.44005,,0.0,1.8039,-0.61021,,,,,1.8039,-0.610244,0.00399569,5.66668,0.0056
-0.15002,15864,4.0645,0.46755,0.0,,1.9158,-0.60976,,,,,1.9158,-0.609735,0.00619116,5.66668,0.0056
-0.15001,16524,4.0594,0.49506,0.0,0.0,2.0275,-0.60895,,,,,2.0275,-0.608924,0.00837627,4.99235,0.0056
-0.15001,17184,4.0523,0.52256,,,2.139,-0.60789,,,,,2.139,-0.607891,0.010438,3.98511,0.0056
-0.15002,17844,4.0437,0.55006,0.0,,2.2504,-0.60664,,,,,2.2504,-0.606641,0.0118476,3.06662,0.0056
-0.15002,18503.974,4.0343,0.57756,0.0,0.0,2.3614,-0.60523,4.0343,0.57756,-2.76687,-0.361879,2.3614,-0.605227,0.0133259,2.82291,0.0056
-0.15003,19163.973,4.0245,0.60507,,,2.4723,-0.6038,,,,,2.4723,-0.603743,0.0143548,2.70828,0.0056
-0.15002,19824,4.0138,0.63257,,0.0,2.5828,-0.60215,4.0138,0.63257,-2.53896,-0.395,2.5828,-0.602135,0.0149242,2.46573,0.0056
-0.15002,20484,4.0022,0.66007,0.0,,2.693,-0.60041,4.0022,0.66007,-2.41034,-0.415,2.693,-0.600414,0.0157786,2.45129,0.0056
-0.15002,21144,3.9907,0.68758,0.41143,2.3134,2.803,-0.59868,,,,,2.803,-0.598675,0.015738,2.38734,0.0056
-0.15003,21804,3.9794,0.71508,0.0,,2.9126,-0.59703,,,,,2.9126,-0.596947,0.0166858,2.40739,0.0056
-0.15002,22464,3.9683,0.74258,,0.0,3.0218,-0.59532,,,,,3.0218,-0.595283,0.014408,2.50583,0.0056
-0.15001,23124,3.9576,0.77008,,,3.1308,-0.59368,3.9576,0.77008,-2.77445,-0.361368,3.1308,-0.593697,0.0138589,2.69974,0.0056
-0.15002,23784,3.9478,0.79759,,,3.2395,-0.59225,,,,,3.2395,-0.592229,0.0125063,2.94521,0.0056
-0.15002,24444,3.9386,0.82509,0.0,0.0,3.348,-0.59087,,,,,3.348,-0.590864,0.0125799,3.19746,0.0056
-0.15002,25104,3.9304,0.85259,,3.3209,3.4562,-0.58964,,,,,3.4562,-0.589625,0.0117894,3.40288,0.0056
-0.15,25764,3.9227,0.8801,0.0,0.0,3.5642,-0.58841,,,,,3.5642,-0.588436,0.00993055,3.65308,0.0056
-0.15001,26424,3.9155,0.9076,0.0,4.0339,3.672,-0.58736,,,,,3.672,-0.587378,0.00970458,4.05153,0.0056
-0.15,27084,3.9089,0.9351,,,3.7796,-0.58634,,,,,3.7796,-0.58639,0.00875252,4.23008,0.0056
-0.15001,27744,3.9025,0.9626,0.0,,3.887,-0.58541,,,,,3.887,-0.585435,0.00852784,4.3533,0.0056
-0.15001,28404,3.8965,0.9901,0.0,,3.9942,-0.58451,,,,,3.9942,-0.584522,0.009265,4.39247,0.0056
-0.15001,29064,3.8903,1.0176,,4.5533,4.1013,-0.58358,3.8903,1.0176,-4.39693,-0.228571,4.1013,-0.583573,0.00875928,4.33325,0.0056
-0.15001,29724,3.8837,1.0451,0.0,0.0,4.2082,-0.58259,,,,,4.2082,-0.582603,0.00819816,4.19856,0.0056
-0.15001,30384,3.8768,1.0726,0.0,,4.3149,-0.58156,,,,,4.3149,-0.581588,0.010528,3.75533,0.0056
-0.15001,31044,3.8695,1.1001,0.0,,4.4214,-0.58046,,,,,4.4214,-0.580445,0.0108426,3.5022,0.0056
-0.15001,31704,3.8613,1.1276,,,4.5278,-0.57923,,,,,4.5278,-0.579205,0.0116403,3.26141,0.0056
-0.15001,32364,3.8519,1.1551,0.0,0.0,4.6338,-0.57782,,,,,4.6338,-0.577823,0.0142762,2.76662,0.0056
-0.15002,33024,3.8409,1.1826,0.40013,0.0,4.7396,-0.57621,,,,,4.7396,-0.576191,0.0164421,2.35197,0.0056
-0.15,33684,3.828,1.2101,0.0,0.0,4.8451,-0.5742,,,,,4.8451,-0.57422,0.0193114,2.05874,0.0056
-0.15002,34344,3.8141,1.2376,,,4.9502,-0.57219,3.8141,1.2376,-2.03891,-0.493333,4.9502,-0.572197,0.0189911,2.09884,0.0056
-0.15002,35004,3.8016,1.2651,0.0,,5.0549,-0.57032,3.8016,1.2651,-2.31385,-0.432381,5.0549,-0.570289,0.0167894,2.34343,0.0056
-0.15002,35664,3.7909,1.2926,0.38813,0.0,5.1593,-0.56871,,,,,5.1593,-0.568685,0.0137419,2.77989,0.0056
-0.15002,36324,3.7813,1.3201,,0.0,5.2634,-0.56727,,,,,5.2634,-0.567296,0.0125127,3.04365,0.0056
-0.15002,36984,3.7724,1.3476,0.0,,5.3673,-0.56594,,,,,5.3673,-0.565951,0.0126065,3.13146,0.0056
-0.15,37644,3.7638,1.3751,,,5.4709,-0.56457,,,,,5.4709,-0.564612,0.0117604,3.17834,0.0056
-0.15002,38304,3.7551,1.4026,,3.2019,5.5743,-0.56334,,,,,5.5743,-0.563344,0.0138546,3.17063,0.0056
-0.15001,38964,3.7467,1.4301,,0.0,5.6775,-0.56204,,,,,5.6775,-0.562036,0.0124703,3.12673,0.0056
-0.15001,39624,3.7378,1.4576,,,5.7804,-0.56071,3.7378,1.4576,-3.125,-0.32,5.7804,-0.560706,0.0129436,3.11526,0.0056
-0.15001,40284,3.7288,1.4851,0.0,,5.8831,-0.55936,,,,,5.8831,-0.559373,0.0127466,3.09521,0.0056
-0.15001,40944,3.7199,1.5127,,3.1026,5.9855,-0.55802,,,,,5.9855,-0.558042,0.0135599,3.12292,0.0056
-0.15001,41604,3.7112,1.5402,0.0,,6.0877,-0.55672,,,,,6.0877,-0.556717,0.0133682,3.15443,0.0056
-0.15001,42264,3.7026,1.5677,0.0,,6.1896,-0.55543,,,,,6.1896,-0.555434,0.0130792,3.26907,0.0056
-0.15001,42923.974,3.6943,1.5952,0.0,,6.2913,-0.55418,3.6943,1.5952,-3.34491,-0.299152,6.2913,-0.55419,0.012075,3.34454,0.0056
-0.15001,43583.974,3.6863,1.6227,0.0,,6.3928,-0.55298,3.6863,1.6227,-3.41049,-0.293455,6.3928,-0.552972,0.0113966,3.51751,0.0056
-0.15001,44244,3.6784,1.6502,,0.0,6.4941,-0.5518,3.6784,1.6502,-3.73082,-0.26819,6.4941,-0.551804,0.0107746,3.66074,0.0056
-0.15001,44904,3.6711,1.6777,0.0,0.0,6.5952,-0.5507,,,,,6.5952,-0.550695,0.0108897,3.79158,0.0056
-0.15002,45564,3.6642,1.7052,0.0,0.0,6.696,-0.5497,,,,,6.696,-0.549651,0.0109255,4.05534,0.0056
-0.15002,46224,3.6574,1.7327,,0.0,6.7967,-0.54868,,,,,6.7967,-0.548652,0.00975663,4.24247,0.0056
-0.15002,46884,3.651,1.7602,0.0,,6.8972,-0.54772,,,,,6.8972,-0.547697,0.00912677,4.38393,0.0056
-0.15001,47544,3.6446,1.7877,0.0,,6.9975,-0.54673,,,,,6.9975,-0.546773,0.00838136,4.50623,0.0056
-0.15002,48204,3.6388,1.8152,,0.0,7.0977,-0.54589,,,,,7.0977,-0.545883,0.00922539,4.62941,0.0056
-0.15001,48864,3.633,1.8427,0.0,0.0,7.1977,-0.54499,,,,,7.1977,-0.545014,0.00849791,4.7355,0.0056
-0.15002,49524,3.6274,1.8702,0.0,,7.2975,-0.54418,,,,,7.2975,-0.544159,0.00918526,4.85014,0.0056
-0.15002,50184,3.6217,1.8977,,0.0,7.3972,-0.54333,,,,,7.3972,-0.543317,0.00837256,4.95035,0.0056
-0.15001,50844,3.6161,1.9252,,0.0,7.4967,-0.54245,,,,,7.4967,-0.542462,0.00805136,4.958,0.0056
-0.15002,51504,3.6105,1.9527,0.20546,,7.5961,-0.54165,,,,,7.5961,-0.541643,0.00862471,4.87785,0.0056
-0.15002,52164,3.6047,1.9802,,4.8625,7.6953,-0.54078,,,,,7.6953,-0.54078,0.00903779,4.78707,0.0056
-0.15001,52823.973,3.599,2.0077,,0.0,7.7944,-0.53989,,,,,7.7944,-0.539924,0.00879435,4.68482,0.0056
-0.15002,53484,3.5932,2.0352,0.0,,7.8933,-0.53905,,,,,7.8933,-0.539027,0.00860528,4.54248,0.0056
-0.15004,54144,3.5869,2.0627,0.0,,7.992,-0.53818,,,,,7.992,-0.538099,0.00914021,4.36388,0.0056
-0.15002,54804,3.5802,2.0902,0.23357,0.0,8.0906,-0.5371,,,,,8.0906,-0.537128,0.0106141,4.09924,0.0056
-0.15002,55464,3.5735,2.1177,,0.0,8.189,-0.5361,,,,,8.189,-0.536082,0.0118619,4.00465,0.0056
-0.15002,56124,3.5666,2.1452,0.0,,8.2872,-0.53506,,,,,8.2872,-0.535061,0.0116864,3.89002,0.0056
-0.15001,56783.974,3.5593,2.1727,0.0,,8.3852,-0.53393,,,,,8.3852,-0.533952,0.0125835,3.75533,0.0056
-0.15002,57444,3.5518,2.2002,,0.0,8.483,-0.53284,,,,,8.483,-0.532813,0.0116588,3.51074,0.0056
-0.15002,58104,3.5437,2.2277,,,8.5805,-0.53163,,,,,8.5805,-0.531625,0.0126121,3.36839,0.0056
-0.15001,58764,3.5352,2.2552,,0.0,8.6779,-0.53032,,,,,8.6779,-0.530338,0.013054,3.11053,0.0056
-0.15002,59424,3.5263,2.2827,,0.0,8.775,-0.52902,3.5263,2.2827,-3.01993,-0.332,8.775,-0.529031,0.0137754,3.0675,0.0056
-0.15002,60084,3.5171,2.3102,0.0,,8.8719,-0.52764,,,,,8.8719,-0.527657,0.0142765,3.09521,0.0056
-0.15002,60744,3.5086,2.3377,0.0,0.0,8.9685,-0.52636,,,,,8.9685,-0.52632,0.01269,3.14678,0.0056
-0.15003,61404,3.4999,2.3652,,3.2325,9.0648,-0.52509,,,,,9.0648,-0.525052,0.0139175,3.15532,0.0056
-0.15002,62064,3.491,2.3927,0.0,0.0,9.161,-0.52372,,,,,9.161,-0.523734,0.0139098,2.9175,0.0056
-0.15002,62724,3.4813,2.4202,0.0,0.0,9.2569,-0.52226,,,,,9.2569,-0.522266,0.0164912,2.73598,0.0056
-0.15002,63384,3.4704,2.4477,0.40244,0.0,9.3525,-0.52063,3.4704,2.4477,-2.31505,-0.432709,9.3525,-0.520592,0.018409,2.4065,0.0056
-0.15002,64044,3.4588,2.4753,,,9.4477,-0.51889,,,,,9.4477,-0.518855,0.0163344,2.41124,0.0056
-0.15002,64704,3.4476,2.5028,,0.0,9.5427,-0.51721,,,,,9.5427,-0.517211,0.0177929,2.41978,0.0056
-0.15001,65364,3.4356,2.5303,0.0,,9.6374,-0.51537,,,,,9.6374,-0.515396,0.0204274,2.35109,0.0056
-0.15002,66024,3.4245,2.5578,0.0,2.5862,9.7317,-0.51374,,,,,9.7317,-0.513737,0.0164877,2.79636,0.0056
-0.15001,66684,3.4166,2.5853,0.0,,9.8258,-0.51252,,,,,9.8258,-0.512512,0.0105309,3.86881,0.0056
-0.15001,67344,3.41,2.6128,,0.0,9.9197,-0.51153,3.41,2.6128,-4.21809,-0.237143,9.9197,-0.511544,0.00968108,4.16589,0.0056
-0.15001,68004,3.4037,2.6403,0.0,0.0,10.013,-0.51059,,,,,10.013,-0.510629,0.0104951,4.13257,0.0056
-0.15002,68664,3.3968,2.6678,0.0,0.0,10.107,-0.50959,,,,,10.107,-0.509582,0.0116819,3.88236,0.0056
-0.15002,69323.974,3.3889,2.6953,0.0,,10.2,-0.5084,,,,,10.2,-0.508399,0.0137923,3.23756,0.0056
-0.15002,69984,3.38,2.7228,0.32252,2.9253,10.293,-0.50707,,,,,10.293,-0.507044,0.0165848,2.92516,0.0056
-0.15002,70644,3.3692,2.7503,,2.4742,10.386,-0.50545,,,,,10.386,-0.505438,0.0192035,2.38734,0.0056
-0.15002,71304,3.3558,2.7778,,,10.479,-0.50344,,,,,10.479,-0.503452,0.0242673,1.77113,0.0056
-0.15001,71964,3.3373,2.8053,,,10.571,-0.50063,3.3373,2.8053,-1.15496,-0.866667,10.571,-0.500668,0.0384726,1.17408,0.0056
-0.15003,72624,3.3042,2.8328,,0.63413,10.662,-0.49573,3.3042,2.8328,-0.625,-1.6,10.662,-0.495721,0.0755288,0.632409,0.0056
-0.15001,73284,3.2517,2.8603,,0.46981,10.752,-0.48779,3.2517,2.8603,-0.463281,-2.16,10.752,-0.487783,0.101211,0.45855,0.0056
-0.15003,73944,3.1853,2.8878,2.6118,0.37814,10.841,-0.47789,3.1853,2.8878,-0.370411,-2.7,10.841,-0.477851,0.126691,0.379278,0.0056
-0.15002,74604,3.1002,2.9153,3.5168,0.28896,10.927,-0.46509,3.1002,2.9153,-0.276665,-3.62,10.927,-0.465067,0.167376,0.264641,0.0056
-0.15001,75264,2.9795,2.9428,5.3685,0.1883,11.011,-0.44695,2.9795,2.9428,-0.181938,-5.5,11.011,-0.446983,0.293243,0.173859,0.0056
-0.15001,75924,2.7078,2.9703,23.247,0.043082,11.09,-0.4062,2.7078,2.9703,-0.0436403,-22.94,11.09,-0.405825,1.10146,0.0515639,0.0056
-0.14987,76151.4,2.5011,2.9798,19.612,0.051096,11.115,-0.37484,,,,,,,,0.0869296,0.0056