File: Data/processed_data/Cycle 72_charge.csv
Current(A),Test_Time(s),Voltage(V),Charge_Capacity(Ah),dV/dQ(V/Ah),dQ/dV(Ah/V),Charge_Energy(Wh),Power(W),Downsampled Voltage (V),Downsampled Capacity (Ah),dQ/dV from downsampled Voltage (Ah/V),dV/dQ from downsampled Cpacity (V/Ah),Downsampled Energy (Wh),Downsampled Power (W),dP/dE from downsampled Energy (W/Wh),dQ/dV from LEAN (Ah/V),Delta_V (V) in LEAN
0.14999,1043.66,4.2001,0.021738,0.0,0.0,0.091301,0.62997,,,,,0.091301,0.592661,3.16222,1.30692,0.0049
0.14998,80831.5,3.1291,0.044997,3.8694,0.26649,0.13573,0.4693,3.1291,0.044997,0.267517,3.74,0.13573,0.469327,0.177206,3.03125,0.0049
0.14999,81491.5,3.2154,0.072495,2.7585,0.36459,0.22302,0.48228,3.2154,0.072495,0.368284,2.72,0.22302,0.48226,0.124353,3.2046,0.0049
0.14999,82151.5,3.2803,0.099993,,0.46972,0.31237,0.49201,3.2803,0.099993,0.476666,2.10119,0.31237,0.491979,0.0953892,3.27626,0.0049
0.14999,82811.5,3.3316,0.12749,0.0,0.57982,0.4033,0.49971,3.3316,0.12749,0.617472,1.62,0.4033,0.499687,0.0753392,3.4198,0.0049
0.14998,83471.5,3.3695,0.15499,0.0,0.87372,0.49547,0.50536,3.3695,0.15499,0.985485,1.02667,0.49547,0.505382,0.0444708,3.81833,0.0049
0.14998,84131.5,3.3862,0.18249,,,0.58839,0.50786,3.3862,0.18249,2.51115,0.40018,0.58839,0.507904,0.0182682,5.50082,0.0049
0.14998,84791.5,3.3956,0.20998,0.0,,0.68164,0.50927,,,,,0.68164,0.509316,0.013813,5.81748,0.0049
0.14999,85451.5,3.4041,0.23748,0.0,0.0,0.77513,0.51058,,,,,0.77513,0.510574,0.0122165,6.18391,0.0049
0.14999,86111.5,3.4118,0.26498,,0.0,0.86884,0.51174,,,,,0.86884,0.511714,0.0122293,6.60457,0.0049
0.14998,86771.5,3.419,0.29248,0.0,0.0,0.96276,0.51278,,,,,0.96276,0.512776,0.0117695,6.73813,0.0049
0.14999,87431.5,3.4258,0.31997,,,1.0569,0.51384,3.4258,0.31997,4.05987,0.246316,1.0569,0.513849,0.0125252,6.66636,0.0049
0.14998,88091.5,3.4329,0.34747,,3.8227,1.1512,0.51487,,,,,1.1512,0.514911,0.0125836,6.49084,0.0049
0.14998,88751.5,3.4408,0.37497,0.0,0.0,1.2457,0.51605,,,,,1.2457,0.516071,0.0128327,6.12441,0.0049
0.14999,89411.5,3.4496,0.40247,,0.0,1.3404,0.51741,3.4496,0.40247,2.97675,0.336222,1.3404,0.517379,0.0146447,5.6618,0.0049
0.14999,90071.5,3.4594,0.42997,,,1.4354,0.51888,,,,,1.4354,0.518849,0.0167072,5.43662,0.0049
0.14998,90731.5,3.4701,0.45746,,0.0,1.5307,0.52045,3.4701,0.45746,2.46989,0.405,1.5307,0.520454,0.0181095,5.34501,0.0049
0.14998,91391.5,3.4811,0.48496,0.0,,1.6262,0.5221,,,,,1.6262,0.522097,0.0169145,5.36485,0.0049
0.14998,92051.5,3.4917,0.51246,,0.0,1.7221,0.52369,,,,,1.7221,0.523731,0.0163666,5.40681,0.0049
0.14999,92711.5,3.5027,0.53996,0.40059,2.4535,1.8183,0.52537,,,,,1.8183,0.525365,0.0174024,5.33504,0.0049
0.14999,93371.5,3.5141,0.56745,,,1.9147,0.52708,3.5141,0.56745,2.59828,0.385,1.9147,0.527068,0.0168309,5.37483,0.0049
0.14999,94031.5,3.5242,0.59495,0.0,,2.0115,0.52859,,,,,2.0115,0.528581,0.0141502,5.65422,0.0049
0.14998,94691.5,3.5339,0.62245,,,2.1085,0.53001,3.5339,0.62245,2.72651,0.367111,2.1085,0.530002,0.0152055,5.48856,0.0049
0.14999,95351.5,3.5446,0.64995,0.0,,2.2059,0.53165,,,,,2.2059,0.531632,0.0177696,5.30306,0.0049
0.14998,96011.506,3.5558,0.67744,,,2.3035,0.5333,,,,,2.3035,0.533329,0.0161337,5.40452,0.0049
0.14999,96671.507,3.5649,0.70494,,,2.4014,0.5347,,,,,2.4014,0.534706,0.0111954,6.1862,0.0049
0.14998,97331.5,3.5723,0.73244,0.27467,,2.4995,0.53577,,,,,2.4995,0.53579,0.0112582,6.6862,0.0049
0.14998,97991.5,3.5793,0.75993,,0.0,2.5978,0.53682,,,,,2.5978,0.536835,0.010622,6.76795,0.0049
0.14999,98651.5,3.5862,0.78743,0.0,,2.6964,0.53789,3.5862,0.78743,4.12792,0.242857,2.6964,0.53786,0.0110548,6.91137,0.0049
0.14999,99311.5,3.5926,0.81493,0.24215,0.0,2.7951,0.53885,,,,,2.7951,0.53885,0.00856466,7.29992,0.0049
0.14999,99971.5,3.5986,0.84243,,,2.8939,0.53975,,,,,2.8939,0.539755,0.00875809,7.5275,0.0049
0.14998,100632,3.6046,0.86992,0.0,,2.993,0.54062,,,,,2.993,0.5406,0.00808346,7.69076,0.0049
0.14999,101292,3.6102,0.89742,,0.0,3.0921,0.54149,3.6102,0.89742,4.90132,0.205,3.0921,0.541464,0.00828936,7.71072,0.0049
0.14999,101952,3.6157,0.92492,0.0,,3.1915,0.54232,,,,,3.1915,0.54231,0.00850427,7.73044,0.0049
0.14998,102612,3.6213,0.95241,,0.0,3.291,0.54312,,,,,3.291,0.543111,0.00864847,7.80221,0.0049
0.14999,103271.506,3.6266,0.97991,0.0,,3.3906,0.54395,,,,,3.3906,0.543955,0.00899135,7.84428,0.0049
0.14997,103932,3.6321,1.0074,,0.0,3.4904,0.54471,,,,,3.4904,0.544757,0.00808128,7.87398,0.0049
0.14998,104592,3.6377,1.0349,0.0,,3.5904,0.54558,,,,,3.5904,0.545572,0.00772945,7.84428,0.0049
0.14998,105252,3.6431,1.0624,,5.0209,3.6905,0.54639,,,,,3.6905,0.546411,0.0082392,7.78237,0.0049
0.14999,105912,3.6486,1.0899,0.0,,3.7907,0.54725,,,,,3.7907,0.547236,0.00839315,7.65878,0.0049
0.14999,106572,3.6542,1.1174,,0.0,3.8911,0.54809,3.6542,1.1174,4.84085,0.207698,3.8911,0.548084,0.00855408,7.59687,0.0049
0.14999,107232,3.6601,1.1449,0.0,0.0,3.9917,0.54898,,,,,3.9917,0.548968,0.00757231,7.54734,0.0049
0.14999,107892,3.6661,1.1724,0.0,,4.0924,0.54988,3.6661,1.1724,4.4318,0.225714,4.0924,0.549865,0.00834125,7.342,0.0049
0.14998,108552,3.6723,1.1999,,,4.1933,0.55077,,,,,4.1933,0.550769,0.00942282,7.20832,0.0049
0.14999,109212,3.6787,1.2274,0.0,,4.2944,0.55177,,,,,4.2944,0.55175,0.0100258,7.04506,0.0049
0.14999,109872,3.6853,1.2549,0.0,0.0,4.3956,0.55276,,,,,4.3956,0.552763,0.0103996,6.74811,0.0049
0.14998,110532,3.6924,1.2824,0.25368,,4.4971,0.55379,,,,,4.4971,0.553811,0.0107785,6.61443,0.0049
0.14998,111192,3.7,1.3099,,,4.5987,0.55493,,,,,4.5987,0.554938,0.0110991,6.38925,0.0049
0.14998,111852,3.7077,1.3374,,0.0,4.7005,0.55608,,,,,4.7005,0.556077,0.0124522,6.28779,0.0049
0.14998,112512,3.7159,1.3649,0.0,,4.8026,0.55731,,,,,4.8026,0.557325,0.012219,6.10228,0.0049
0.14998,113171.506,3.7242,1.3924,0.0,,4.9049,0.55856,,,,,4.9049,0.558598,0.0123656,6.01068,0.0049
0.14999,113831.507,3.733,1.4199,0.31825,3.1263,5.0074,0.55991,,,,,5.0074,0.559888,0.0126714,5.95874,0.0049
0.14998,114492,3.7421,1.4474,,,5.1102,0.56124,3.7421,1.4474,3.01292,0.332,5.1102,0.561231,0.0127808,5.86713,0.0049
0.14998,115152,3.7512,1.4749,0.0,,5.2132,0.5626,,,,,5.2132,0.562604,0.014849,5.77553,0.0049
0.14998,115811.506,3.7602,1.5024,,0.0,5.3165,0.56395,,,,,5.3165,0.563976,0.0138893,5.80534,0.0049
0.14998,116472,3.7694,1.5299,0.0,,5.42,0.56533,,,,,5.42,0.56534,0.0133475,5.85727,0.0049
0.14999,117132,3.7785,1.5574,,3.0249,5.5238,0.56674,,,,,5.5238,0.566719,0.0130299,5.80534,0.0049
0.14997,117792,3.7877,1.5848,0.0,,5.6278,0.56804,,,,,5.6278,0.568067,0.0134818,5.89923,0.0049
0.14999,118452,3.7968,1.6123,,0.0,5.7321,0.56948,,,,,5.7321,0.569456,0.0133542,5.86713,0.0049
0.14999,119112,3.8058,1.6398,0.0,,5.8366,0.57083,3.8058,1.6398,2.94199,0.34,5.8366,0.570834,0.0139909,5.77553,0.0049
0.14998,119772,3.8153,1.6673,,0.0,5.9414,0.57222,,,,,5.9414,0.572234,0.014041,5.59002,0.0049
0.14997,120432,3.8254,1.6948,,0.0,6.0464,0.5737,,,,,6.0464,0.573733,0.0146086,5.47858,0.0049
0.14999,121092,3.8368,1.7223,0.0,,6.1518,0.57548,,,,,6.1518,0.575449,0.017905,4.98628,0.0049
0.15,121752,3.8502,1.7498,0.0,,6.2574,0.57753,3.8502,1.7498,1.92561,0.52,6.2574,0.577484,0.0200516,4.78094,0.0049
0.14998,122412,3.8636,1.7773,,2.1552,6.3635,0.57946,,,,,6.3635,0.579485,0.0163807,5.24114,0.0049
0.14998,123072,3.8736,1.8048,,2.8919,6.4699,0.58096,3.8736,1.8048,3.18074,0.314667,6.4699,0.580999,0.0121837,6.0007,0.0049
0.14999,123732,3.8815,1.8323,0.0,,6.5765,0.58219,,,,,6.5765,0.582167,0.00975056,6.6862,0.0049
0.14999,124391.506,3.8885,1.8598,,4.01,6.6833,0.58324,,,,,6.6833,0.583214,0.00951174,6.93361,0.0049
0.14998,125052,3.8949,1.8873,0.0,,6.7903,0.58416,,,,,6.7903,0.584139,0.0101575,7.11671,0.0049
0.14998,125711.507,3.9008,1.9148,,,6.8975,0.58504,,,,,6.8975,0.585066,0.00881171,7.48543,0.0049
0.14998,126372,3.9066,1.9423,0.0,,7.0049,0.58591,,,,,7.0049,0.585949,0.00729337,7.66107,0.0049
0.14998,127032,3.9123,1.9698,,0.0,7.1124,0.58677,,,,,7.1124,0.586764,0.00841129,7.70074,0.0049
0.14998,127692,3.9178,1.9973,0.0,,7.22,0.58759,3.9178,1.9973,4.90132,0.205,7.22,0.587618,0.00778745,7.60913,0.0049
0.14998,128352,3.9239,2.0248,0.0,,7.3278,0.58851,,,,,7.3278,0.58851,0.00846891,7.42363,0.0049
0.14999,129012,3.9301,2.0523,,,7.4358,0.58948,3.9301,2.0523,4.27337,0.234286,7.4358,0.589433,0.00803601,6.96331,0.0049
0.14999,129672,3.9366,2.0798,0.0,,7.5439,0.59045,,,,,7.5439,0.590456,0.00974874,6.69617,0.0049
0.14998,130332,3.944,2.1073,0.0,,7.6523,0.59152,,,,,7.6523,0.591544,0.0109186,6.5007,0.0049
0.14998,130992,3.9522,2.1348,,,7.7608,0.59275,,,,,7.7608,0.592749,0.0113498,6.1862,0.0049
0.14998,131652,3.9611,2.1623,0.0,,7.8696,0.59409,,,,,7.8696,0.594075,0.0123543,5.68163,0.0049
0.14998,132311.507,3.9705,2.1898,,0.0,7.9787,0.5955,,,,,7.9787,0.595512,0.0144911,5.50839,0.0049
0.14999,132972,3.9808,2.2173,0.0,0.0,8.088,0.59708,,,,,8.088,0.597079,0.0146527,5.41679,0.0049
0.14998,133632,3.9918,2.2448,,,8.1976,0.59869,,,,,8.1976,0.598709,0.0144254,5.32518,0.0049
0.14997,134292,4.0032,2.2723,0.41405,2.4014,8.3075,0.60036,,,,,8.3075,0.600395,0.0146352,5.21145,0.0049
0.14999,134952,4.0148,2.2998,0.0,,8.4178,0.60218,,,,,8.4178,0.602135,0.0147898,5.20147,0.0049
0.14998,135612,4.0262,2.3273,,,8.5283,0.60385,4.0262,2.3273,2.41034,0.415,8.5283,0.603851,0.0152288,5.27324,0.0049
0.14999,136271.509,4.0373,2.3548,0.0,0.0,8.6392,0.60555,,,,,8.6392,0.605513,0.0144961,5.36485,0.0049
0.14998,136932,4.0474,2.3823,,0.0,8.7503,0.60703,,,,,8.7503,0.607057,0.0142307,5.62212,0.0049
0.14998,137592,4.0571,2.4098,,0.0,8.8618,0.60848,,,,,8.8618,0.608502,0.0111917,5.68163,0.0049
0.14998,138252,4.066,2.4373,0.0,,8.9734,0.60982,4.066,2.4373,3.37187,0.29697,8.9734,0.609812,0.010456,6.20375,0.0049
0.14998,138912,4.0734,2.4647,,3.7955,9.0853,0.61093,,,,,9.0853,0.610925,0.00841352,7.58701,0.0049
0.14998,139572,4.0789,2.4922,0.0,,9.1974,0.61175,,,,,9.1974,0.611792,0.00602975,7.97426,0.0049
0.14998,140232,4.0825,2.5197,0.17389,0.0,9.3096,0.61229,,,,,9.3096,0.612325,0.00309772,6.90525,0.0049
0.14998,140712,4.0846,2.5397,0.0,,9.3913,0.61261,4.0846,2.5397,10,0.0800866,9.3913,0.612609,0.00238585,6.90525,0.0049