File: Data/processed_data/Cycle 295_charge.csv
Current(A),Test_Time(s),Voltage(V),Charge_Capacity(Ah),dV/dQ(V/Ah),dQ/dV(Ah/V),Charge_Energy(Wh),Power(W),Downsampled Voltage (V),Downsampled Capacity (Ah),dQ/dV from downsampled Voltage (Ah/V),dV/dQ from downsampled Cpacity (V/Ah),Downsampled Energy (Wh),Downsampled Power (W),dP/dE from downsampled Energy (W/Wh),dQ/dV from LEAN (Ah/V),Delta_V (V) in LEAN
0.14996,1129.154,4.1999,0.03634,0.0,0.0,0.15262,0.62982,4.1999,0.03634,-0.00337172,-475.131,,,,2.451,0.0056
0.14999,79721.453,3.1849,0.06,3.2006,0.31846,0.18329,0.4777,3.1849,0.06,0.320935,3.12,0.18329,0.477679,0.144401,3.30725,0.0056
0.14999,80381.453,3.2585,0.0875,,0.42308,0.27193,0.48874,3.2585,0.0875,0.431291,2.32,0.27193,0.488744,0.108385,3.38533,0.0056
0.14999,81041.452,3.3155,0.11499,,0.52781,0.36235,0.49729,3.3155,0.11499,0.555556,1.8,0.36235,0.497308,0.0839119,3.60657,0.0056
0.14998,81701.452,3.3601,0.14249,0.0,,0.45416,0.50395,,,,,0.45416,0.503991,0.06054,3.6742,0.0056
0.14999,82361.453,3.3847,0.16999,0.0,0.0,0.54695,0.50767,,,,,0.54695,0.507688,0.0246753,4.90396,0.0056
0.14999,83021.451,3.397,0.19749,0.0,2.5161,0.6402,0.50952,,,,,0.6402,0.509518,0.0150443,5.72639,0.0056
0.14999,83681.453,3.4062,0.22499,0.0,,0.73374,0.5109,3.4062,0.22499,3.25663,0.308,0.73374,0.510861,0.0136155,6.05758,0.0056
0.14998,84341.451,3.4141,0.25248,0.0,,0.82751,0.51205,3.4141,0.25248,3.66173,0.273429,0.82751,0.51205,0.0123556,6.56378,0.0056
0.14999,85001.451,3.4213,0.27998,0.27207,,0.92149,0.51316,,,,,0.92149,0.513183,0.0101273,6.75571,0.0056
0.14998,85661.452,3.4283,0.30748,,0.0,1.0157,0.51418,,,,,1.0157,0.514206,0.0115891,6.87806,0.0056
0.14999,86321.452,3.4354,0.33498,,,1.11,0.51528,,,,,1.11,0.51525,0.0107456,6.78307,0.0056
0.14999,86981.451,3.4428,0.36248,0.0,,1.2046,0.51639,,,,,1.2046,0.516357,0.0116645,6.53642,0.0056
0.14998,87641.452,3.4508,0.38997,,,1.2994,0.51755,,,,,1.2994,0.517565,0.0137297,6.29182,0.0056
0.14999,88301.451,3.4598,0.41747,0.0,,1.3944,0.51894,,,,,1.3944,0.518912,0.0151377,5.88255,0.0056
0.14999,88961.453,3.4698,0.44497,,,1.4897,0.52044,3.4698,0.44497,2.59828,0.385,1.4897,0.520432,0.017055,5.58518,0.0056
0.14997,89621.451,3.4806,0.47247,,,1.5852,0.52199,,,,,1.5852,0.522037,0.0170873,5.44593,0.0056
0.14999,90281.452,3.4918,0.49996,0.40805,2.4405,1.6811,0.52374,,,,,1.6811,0.523712,0.0169342,5.42902,0.0056
0.14998,90941.452,3.5031,0.52746,0.0,,1.7772,0.52539,,,,,1.7772,0.525387,0.0177334,5.41016,0.0056
0.14999,91601.451,3.514,0.55496,,0.0,1.8737,0.52706,3.514,0.55496,2.46989,0.405,1.8737,0.527054,0.0174004,5.49019,0.0056
0.15,92261.451,3.5249,0.58246,0.0,,1.9705,0.52874,,,,,1.9705,0.528716,0.0169011,5.52401,0.0056
0.14998,92921.451,3.5358,0.60995,,0.0,2.0676,0.5303,,,,,2.0676,0.530299,0.0150914,5.66521,0.0056
0.14998,93581.451,3.546,0.63745,,0.0,2.1649,0.53183,3.546,0.63745,2.66761,0.375,2.1649,0.531836,0.0155292,5.70948,0.0056
0.14998,94241.451,3.5561,0.66495,,0.0,2.2626,0.53334,,,,,2.2626,0.53335,0.0161153,5.68017,0.0056
0.14999,94901.453,3.5657,0.69245,,0.0,2.3605,0.53482,3.5657,0.69245,2.94427,0.340335,2.3605,0.534812,0.0152746,5.9964,0.0056
0.15,95561.451,3.5746,0.71994,0.0,,2.4587,0.53619,,,,,2.4587,0.536162,0.011634,6.40567,0.0056
0.14999,96221.451,3.5824,0.74744,0.0,,2.5571,0.53732,,,,,2.5571,0.537319,0.0103834,6.66072,0.0056
0.14998,96881.453,3.5896,0.77494,,0.0,2.6557,0.53837,,,,,2.6557,0.538388,0.0107304,6.83379,0.0056
0.15,97541.453,3.5965,0.80244,0.0,,2.7545,0.53948,,,,,2.7545,0.539432,0.0101412,6.98996,0.0056
0.14999,98201.452,3.603,0.82993,,,2.8535,0.54041,,,,,2.8535,0.540381,0.0104856,7.38427,0.0056
0.14999,98861.452,3.6091,0.85743,0.0,0.0,2.9526,0.54133,,,,,2.9526,0.541352,0.0094863,7.53193,0.0056
0.14999,99521.452,3.6154,0.88493,0.0,0.0,3.052,0.54227,,,,,3.052,0.542253,0.00978672,7.65428,0.0056
0.14999,100181.451,3.6211,0.91243,0.21387,,3.1515,0.54313,,,,,3.1515,0.543124,0.00882023,7.75122,0.0056
0.14998,100841.452,3.6267,0.93993,,,3.2511,0.54393,,,,,3.2511,0.543952,0.00846333,7.76812,0.0056
0.15,101501.452,3.6323,0.96742,0.0,,3.3509,0.54485,,,,,3.3509,0.544835,0.00858757,7.74927,0.0056
0.14999,102161.452,3.638,0.99492,,0.0,3.4509,0.54566,3.638,0.99492,4.89911,0.205113,3.4509,0.545661,0.00782038,7.78503,0.0056
0.15,102821.451,3.6437,1.0224,,,3.551,0.54656,,,,,3.551,0.546532,0.00837624,7.81239,0.0056
0.15,103481.451,3.6495,1.0499,0.0,0.0,3.6513,0.54743,,,,,3.6513,0.54739,0.00791875,7.76812,0.0056
0.14999,104141.453,3.6553,1.0774,0.0,0.0,3.7517,0.54826,,,,,3.7517,0.548238,0.00902943,7.65428,0.0056
0.14998,104801.453,3.6611,1.1049,0.2141,,3.8523,0.54909,,,,,3.8523,0.54914,0.00923641,7.53193,0.0056
0.14998,105461.452,3.6673,1.1324,,4.4881,3.953,0.55002,,,,,3.953,0.550038,0.00907087,7.40117,0.0056
0.14999,106121.453,3.6737,1.1599,0.0,0.0,4.054,0.55102,,,,,4.054,0.551017,0.00962425,7.26192,0.0056
0.14998,106781.451,3.6804,1.1874,,,4.1551,0.55199,,,,,4.1551,0.551995,0.00981175,7.0869,0.0056
0.14998,107441.452,3.6871,1.2149,,3.9544,4.2564,0.55299,,,,,4.2564,0.553011,0.0112598,6.72835,0.0056
0.14999,108101.454,3.6944,1.2424,,,4.3579,0.55412,,,,,4.3579,0.554121,0.0101545,6.6061,0.0056
0.14998,108761.451,3.702,1.2699,,3.5669,4.4596,0.55523,3.702,1.2699,3.58766,0.28,4.4596,0.555285,0.0129465,6.55528,0.0056
0.14998,109421.452,3.71,1.2974,0.0,0.0,4.5615,0.55643,3.71,1.2974,3.34402,0.3,4.5615,0.556477,0.0121007,6.30023,0.0056
0.14999,110081.454,3.7186,1.3249,,0.0,4.6636,0.55775,,,,,4.6636,0.557742,0.0122616,6.21374,0.0056
0.14999,110741.452,3.7274,1.3524,,3.105,4.766,0.55907,,,,,4.766,0.559055,0.0131639,6.11875,0.0056
0.14999,111401.451,3.7364,1.3799,0.0,,4.8686,0.56042,,,,,4.8686,0.560405,0.0136388,6.01331,0.0056
0.14999,112061.451,3.7456,1.4074,,0.0,4.9715,0.5618,,,,,4.9715,0.561797,0.0139723,5.89946,0.0056
0.14998,112721.452,3.7547,1.4349,0.0,,5.0746,0.56313,,,,,5.0746,0.563192,0.0138657,5.89946,0.0056
0.14999,113381.452,3.7641,1.4624,,0.0,5.178,0.56458,,,,,5.178,0.564603,0.0125246,5.91637,0.0056
0.14999,114041.451,3.7736,1.4899,0.0,,5.2816,0.566,,,,,5.2816,0.565985,0.0135322,5.95213,0.0056
0.15,114701.453,3.7827,1.5174,,2.9868,5.3855,0.56741,,,,,5.3855,0.567376,0.013361,5.9879,0.0056
0.14998,115361.453,3.7917,1.5449,0.33258,,5.4896,0.56868,,,,,5.4896,0.568719,0.0130094,6.0049,0.0056
0.14999,116021.451,3.8008,1.5724,,0.0,5.594,0.57008,,,,,5.594,0.570061,0.0123236,5.9964,0.0056
0.14999,116681.453,3.81,1.5999,0.0,,5.6986,0.57146,3.81,1.5999,3.01292,0.332,5.6986,0.571438,0.012762,5.93523,0.0056
0.14998,117341.451,3.8191,1.6274,,0.0,5.8035,0.57279,,,,,5.8035,0.572801,0.0134455,5.88255,0.0056
0.14998,118001.452,3.8287,1.6549,0.0,0.0,5.9087,0.57423,,,,,5.9087,0.574263,0.0143405,5.80447,0.0056
0.14998,118661.451,3.8387,1.6824,0.0,,6.0141,0.57573,,,,,6.0141,0.575772,0.014746,5.64636,0.0056
0.14998,119321.451,3.8491,1.7099,0.0,0.0,6.1198,0.57729,,,,,6.1198,0.57732,0.0146513,5.55137,0.0056
0.14999,119981.451,3.8597,1.7374,0.0,0.0,6.2258,0.57892,,,,,6.2258,0.578933,0.0156896,5.5071,0.0056
0.14998,120641.452,3.8707,1.7649,,,6.3321,0.58053,,,,,6.3321,0.580535,0.0150746,5.52401,0.0056
0.14999,121301.451,3.8811,1.7924,0.0,0.0,6.4387,0.58213,,,,,6.4387,0.582117,0.0132999,5.77711,0.0056
0.14998,121961.451,3.8903,1.8199,0.0,,6.5455,0.58347,3.8903,1.8199,3.30775,0.304,6.5455,0.583467,0.0115276,6.34449,0.0056
0.14998,122621.451,3.8978,1.8474,,,6.6526,0.58459,3.8978,1.8474,3.90776,0.256044,6.6526,0.584624,0.01015,6.75571,0.0056
0.14999,123281.451,3.9045,1.8749,0.0,0.0,6.7599,0.58564,,,,,6.7599,0.585651,0.00868932,7.13116,0.0056
0.14999,123941.451,3.9106,1.9023,0.0,0.0,6.8673,0.58655,,,,,6.8673,0.586582,0.00846891,7.60356,0.0056
0.15,124601.451,3.9164,1.9298,0.0,0.0,6.9749,0.58746,,,,,6.9749,0.587445,0.00630084,7.61196,0.0056
0.14999,125261.452,3.9224,1.9573,0.0,4.7458,7.0827,0.58832,,,,,7.0827,0.58828,0.00807407,7.46235,0.0056
0.14999,125921.452,3.9284,1.9848,,0.0,7.1906,0.58922,,,,,7.1906,0.589207,0.00840272,7.27882,0.0056
0.14999,126581.451,3.9347,2.0123,0.0,0.0,7.2988,0.59017,,,,,7.2988,0.590176,0.00933618,7.03617,0.0056
0.14999,127241.452,3.9419,2.0398,,,7.4071,0.59125,3.9419,2.0398,3.62391,0.276667,7.4071,0.59125,0.0106739,6.71144,0.0056
0.15,127901.451,3.9499,2.0673,0.0,,7.5156,0.59249,3.9499,2.0673,3.33452,0.3,7.5156,0.59243,0.0105645,6.2495,0.0056
0.14998,128561.453,3.9585,2.0948,,,7.6243,0.5937,,,,,7.6243,0.593693,0.0132902,6.09334,0.0056
0.14998,129221.451,3.9677,2.1223,,2.8862,7.7333,0.59508,,,,,7.7333,0.595126,0.0132795,5.77711,0.0056
0.14999,129881.453,3.9778,2.1498,,2.6638,7.8425,0.59663,3.9778,2.1498,2.67521,0.375,7.8425,0.59665,0.0137164,5.52401,0.0056
0.14999,130541.453,3.9889,2.1773,,,7.952,0.5983,,,,,7.952,0.598279,0.0152575,5.38475,0.0056
0.14999,131201.451,4.0003,2.2048,0.0,0.0,8.0619,0.6,,,,,8.0619,0.599986,0.0150932,5.36784,0.0056
0.14999,131861.452,4.0119,2.2323,0.42796,0.0,8.172,0.60174,,,,,8.172,0.601745,0.0167706,5.2709,0.0056
0.14999,132521.451,4.0237,2.2598,0.0,,8.2825,0.60351,,,,,8.2825,0.60352,0.0159766,5.33208,0.0056
0.14999,133181.452,4.035,2.2873,,0.0,8.3933,0.60521,,,,,8.3933,0.60523,0.014046,5.49019,0.0056
0.14999,133841.453,4.0462,2.3148,,,8.5044,0.60689,4.0462,2.3148,2.6053,0.385,8.5044,0.606841,0.0132879,5.60209,0.0056
0.14999,134501.452,4.0563,2.3423,,0.0,8.6158,0.6084,,,,,8.6158,0.608367,0.0125595,5.95213,0.0056
0.14999,135161.452,4.0653,2.3698,,,8.7275,0.60975,,,,,8.7275,0.609769,0.0111483,6.24755,0.0056
0.14998,135821.452,4.0732,2.3973,,,8.8394,0.6109,,,,,8.8394,0.610927,0.00894465,7.13466,0.0056
0.14999,136481.454,4.0793,2.4248,0.0,,8.9515,0.61185,,,,,8.9515,0.611839,0.00597719,6.48233,0.0056
0.14997,137141.453,4.083,2.4523,,0.0,9.0637,0.61233,4.083,2.4523,7.5,0.129949,9.0637,0.61234,0.000925545,6.48233,0.0056