File: Data/processed_data/Cycle 520_charge.csv
Current(A),Test_Time(s),Voltage(V),Charge_Capacity(Ah),dV/dQ(V/Ah),dQ/dV(Ah/V),Charge_Energy(Wh),Power(W),Downsampled Voltage (V),Downsampled Capacity (Ah),dQ/dV from downsampled Voltage (Ah/V),dV/dQ from downsampled Cpacity (V/Ah),Downsampled Energy (Wh),Downsampled Power (W),dP/dE from downsampled Energy (W/Wh),dQ/dV from LEAN (Ah/V),Delta_V (V) in LEAN
0.14999,977.665,4.2037,0.0292,-5.0442,-0.13021,0.12334,0.63051,4.2037,0.0292,-0.000707315,-1754.37,0.12334,0.594992,2.24935,,0.0049
0.14999,77774.423,3.1745,0.05248,3.4711,0.29576,0.16038,0.47614,3.1745,0.05248,0.299594,3.34,0.16038,0.476107,0.156711,3.13666,0.0049
0.14999,78434.422,3.2523,0.07997,2.5152,0.40062,0.24877,0.48781,3.2523,0.07997,0.416898,2.4,0.24877,0.487786,0.111739,3.25474,0.0049
0.14998,79094.423,3.3114,0.10746,1.993,0.50972,0.33902,0.49664,3.3114,0.10746,0.531915,1.88,0.33902,0.49665,0.0877178,3.38222,0.0049
0.14998,79754.422,3.3582,0.13495,1.5316,0.66846,0.43072,0.50366,3.3582,0.13495,0.676664,1.48,0.43072,0.503676,0.06384,3.6256,0.0049
0.14998,80414.422,3.3862,0.16244,0.0,,0.52347,0.50786,3.3862,0.16244,1.57094,0.656248,0.52347,0.507853,0.0283179,4.60338,0.0049
0.14998,81074.423,3.3996,0.18993,,,0.61675,0.50987,,,,,0.61675,0.509863,0.0177428,5.23874,0.0049
0.14998,81734.422,3.4092,0.21741,,,0.71034,0.51131,,,,,0.71034,0.511322,0.0145127,5.8056,0.0049
0.14998,82394.423,3.4176,0.2449,0.0,0.0,0.80416,0.51257,3.4176,0.2449,3.46624,0.288942,0.80416,0.5126,0.0132231,6.28502,0.0049
0.14998,83054.423,3.4252,0.27239,0.0,,0.89821,0.51371,,,,,0.89821,0.513743,0.0111989,6.58739,0.0049
0.14998,83714.422,3.4324,0.29987,,0.0,0.99246,0.51479,,,,,0.99246,0.514806,0.011087,6.69594,0.0049
0.14999,84374.422,3.4396,0.32736,0.0,0.0,1.0869,0.51591,,,,,1.0869,0.515879,0.0105397,6.58739,0.0049
0.14998,85034.422,3.447,0.35485,,,1.1815,0.51698,,,,,1.1815,0.516983,0.0119722,6.45038,0.0049
0.14998,85694.422,3.4548,0.38234,,0.0,1.2764,0.51815,,,,,1.2764,0.51813,0.0126836,6.14801,0.0049
0.14998,86354.422,3.4633,0.40982,,3.1412,1.3715,0.51943,,,,,1.3715,0.519422,0.015423,5.95202,0.0049
0.14998,87014.423,3.4728,0.43731,,,1.4668,0.52085,,,,,1.4668,0.520873,0.0150015,5.60009,0.0049
0.14998,87674.423,3.4834,0.4648,,2.5559,1.5624,0.52244,,,,,1.5624,0.522457,0.0170096,5.31666,0.0049
0.14997,88334.423,3.4946,0.49229,0.0,,1.6583,0.52409,,,,,1.6583,0.524107,0.016923,5.33559,0.0049
0.14998,88994.422,3.5058,0.51978,,0.0,1.7545,0.5258,3.5058,0.51978,2.46989,0.405,1.7545,0.52579,0.0173179,5.42521,0.0049
0.14997,89654.423,3.5168,0.54727,,,1.8511,0.52741,,,,,1.8511,0.527459,0.0174428,5.31666,0.0049
0.14998,90314.422,3.5279,0.57476,0.40159,0.0,1.9479,0.52911,,,,,1.9479,0.529124,0.0167554,5.31666,0.0049
0.14998,90974.423,3.5389,0.60225,,2.5325,2.045,0.53076,,,,,2.045,0.530751,0.0162783,5.45367,0.0049
0.14998,91634.422,3.5492,0.62974,,,2.1424,0.53231,,,,,2.1424,0.532305,0.0163661,5.60961,0.0049
0.14998,92294.423,3.5588,0.65723,,2.8364,2.2401,0.53375,,,,,2.2401,0.533772,0.0146847,5.7371,0.0049
0.14997,92954.422,3.5684,0.68471,0.34355,2.9437,2.3381,0.53515,,,,,2.3381,0.535157,0.0136298,5.86458,0.0049
0.14998,93614.422,3.5773,0.7122,,0.0,2.4363,0.53652,,,,,2.4363,0.536517,0.012911,6.05839,0.0049
0.14999,94274.422,3.5856,0.73969,0.0,,2.5348,0.5378,,,,,2.5348,0.537748,0.0128386,6.23545,0.0049
0.14999,94934.422,3.593,0.76718,,,2.6334,0.53891,,,,,2.6334,0.5389,0.0115754,6.60632,0.0049
0.14998,95594.423,3.6002,0.79467,0.0,,2.7323,0.53996,,,,,2.7323,0.539996,0.0104092,6.78338,0.0049
0.14997,96254.423,3.607,0.82216,0.0,0.0,2.8314,0.54094,,,,,2.8314,0.540993,0.0095597,6.97719,0.0049
0.14998,96914.422,3.6137,0.84965,,4.2293,2.9306,0.54198,,,,,2.9306,0.541973,0.00873996,7.10467,0.0049
0.14998,97574.423,3.62,0.87714,,0.0,3.03,0.54293,,,,,3.03,0.542912,0.00992649,7.2628,0.0049
0.14998,98234.422,3.6259,0.90463,0.0,0.0,3.1296,0.54381,3.6259,0.90463,4.66703,0.214349,3.1296,0.543841,0.00883333,7.43767,0.0049
0.14998,98894.422,3.6318,0.93211,,0.0,3.2294,0.5447,,,,,3.2294,0.544719,0.00871949,7.51559,0.0049
0.14999,99554.422,3.6378,0.9596,0.0,0.0,3.3293,0.54563,3.6378,0.9596,4.67641,0.214594,3.3293,0.545591,0.00854018,7.59362,0.0049
0.14998,100214.422,3.6436,0.98709,0.0,4.7051,3.4294,0.54647,,,,,3.4294,0.546451,0.0090781,7.67371,0.0049
0.14998,100874.423,3.6493,1.0146,,0.0,3.5296,0.54732,,,,,3.5296,0.547337,0.00902687,7.61473,0.0049
0.14998,101534.422,3.6552,1.0421,,,3.63,0.54821,,,,,3.63,0.548221,0.00870668,7.36917,0.0049
0.14999,102194.422,3.6613,1.0696,0.0,,3.7306,0.54916,,,,,3.7306,0.549154,0.00928076,7.28173,0.0049
0.14999,102854.422,3.6677,1.097,,,3.8313,0.55012,,,,,3.8313,0.550089,0.00842581,7.15425,0.0049
0.14998,103514.422,3.6742,1.1245,0.0,,3.9322,0.55106,3.6742,1.1245,4.2279,0.237143,3.9322,0.551026,0.00980795,7.03617,0.0049
0.14998,104174.422,3.6809,1.152,0.0,0.0,4.0333,0.55206,,,,,4.0333,0.552062,0.0105567,6.79279,0.0049
0.14998,104834.422,3.6878,1.1795,0.25317,,4.1346,0.5531,,,,,4.1346,0.553111,0.00995363,6.61584,0.0049
0.14998,105494.422,3.6952,1.207,,0.0,4.2361,0.55421,,,,,4.2361,0.554228,0.0113002,6.39139,0.0049
0.14998,106154.422,3.703,1.2345,,0.0,4.3377,0.55538,,,,,4.3377,0.555396,0.0110658,6.32289,0.0049
0.14999,106814.422,3.7113,1.262,0.0,,4.4397,0.55666,,,,,4.4397,0.55662,0.012583,6.10796,0.0049
0.14997,107474.422,3.7198,1.2895,0.0,,4.5418,0.55786,,,,,4.5418,0.557885,0.0129383,5.95202,0.0049
0.14998,108134.422,3.7286,1.317,,3.0711,4.6442,0.55922,,,,,4.6442,0.559222,0.0139785,5.93309,0.0049
0.14998,108794.422,3.7377,1.3445,0.33193,,4.7468,0.56058,3.7377,1.3445,2.99602,0.333888,4.7468,0.560595,0.0133569,5.86458,0.0049
0.14997,109454.422,3.7472,1.3719,0.0,0.0,4.8497,0.56197,,,,,4.8497,0.562002,0.0133559,5.75603,0.0049
0.14999,110114.422,3.7566,1.3994,0.0,,4.9528,0.56345,,,,,4.9528,0.563409,0.0135855,5.7371,0.0049
0.14998,110774.423,3.7659,1.4269,,,5.0562,0.56481,3.7659,1.4269,2.94199,0.34,5.0562,0.564821,0.0141732,5.7371,0.0049
0.14998,111434.423,3.7754,1.4544,0.0,0.0,5.1599,0.56623,,,,,5.1599,0.56623,0.0136774,5.82454,0.0049
0.14998,112094.423,3.7848,1.4819,0.0,,5.2638,0.56764,,,,,5.2638,0.567634,0.0133679,5.91416,0.0049
0.14999,112754.422,3.7938,1.5094,,3.0239,5.3679,0.56903,3.7938,1.5094,2.97957,0.336,5.3679,0.568997,0.013429,5.84347,0.0049
0.14998,113414.422,3.8029,1.5369,0.0,,5.4723,0.57036,,,,,5.4723,0.570361,0.0130732,5.86458,0.0049
0.14998,114074.422,3.812,1.5644,,0.0,5.577,0.57172,,,,,5.577,0.571724,0.0130916,5.81501,0.0049
0.14998,114734.422,3.8213,1.5919,0.0,,5.6819,0.57312,,,,,5.6819,0.573115,0.0125339,5.81501,0.0049
0.14998,115394.423,3.8307,1.6193,,0.0,5.7871,0.57453,,,,,5.7871,0.574519,0.0125826,5.8056,0.0049
0.14999,116054.422,3.8401,1.6468,0.0,,5.8925,0.57598,,,,,5.8925,0.575953,0.0138318,5.7371,0.0049
0.14999,116714.422,3.8494,1.6743,,,5.9982,0.57737,,,,,5.9982,0.577353,0.0138804,5.66859,0.0049
0.14998,117374.422,3.859,1.7018,,2.8777,6.1042,0.57877,,,,,6.1042,0.578789,0.0133166,5.7371,0.0049
0.14998,118034.422,3.8687,1.7293,0.3481,2.8794,6.2104,0.58023,,,,,6.2104,0.58021,0.0130001,5.7371,0.0049
0.14997,118694.422,3.8782,1.7568,0.34688,,6.3168,0.58161,3.8782,1.7568,2.8795,0.347333,6.3168,0.581621,0.0136268,5.68753,0.0049
0.14999,119354.423,3.8873,1.7843,,0.0,6.4236,0.58306,,,,,6.4236,0.58305,0.0132086,5.88352,0.0049
0.14999,120014.423,3.8963,1.8118,0.0,,6.5306,0.58441,,,,,6.5306,0.584383,0.0115613,6.18588,0.0049
0.14998,120674.422,3.9046,1.8393,,,6.6378,0.58561,,,,,6.6378,0.585607,0.0104465,6.41033,0.0049
0.14998,121334.422,3.9118,1.8667,0.0,,6.7452,0.58669,,,,,6.7452,0.586662,0.00907069,6.9298,0.0049
0.14999,121994.422,3.9181,1.8942,0.24184,,6.8528,0.58768,3.9181,1.8942,4.48718,0.222857,6.8528,0.587653,0.00953451,7.09526,0.0049
0.14997,122654.423,3.9243,1.9217,,,6.9606,0.58853,,,,,6.9606,0.588574,0.00804196,7.18488,0.0049
0.14997,123314.422,3.9306,1.9492,0.0,,7.0686,0.58947,,,,,7.0686,0.589533,0.0087032,6.9983,0.0049
0.14998,123974.423,3.9376,1.9767,,0.0,7.1767,0.59056,,,,,7.1767,0.590552,0.00952526,6.73381,0.0049
0.14999,124634.423,3.9451,2.0042,0.0,0.0,7.2851,0.59173,,,,,7.2851,0.591677,0.0121023,6.29443,0.0049
0.14998,125294.423,3.9531,2.0317,,0.0,7.3936,0.59289,,,,,7.3936,0.592906,0.0124779,6.10796,0.0049
0.14998,125954.422,3.962,2.0592,,0.0,7.5024,0.59422,3.962,2.0592,2.97957,0.336,7.5024,0.594246,0.0129053,5.84565,0.0049
0.14998,126614.422,3.9718,2.0867,0.0,,7.6114,0.59569,,,,,7.6114,0.595674,0.0137423,5.56004,0.0049
0.14998,127274.422,3.9823,2.1141,0.0,,7.7208,0.59727,3.9823,2.1141,2.53246,0.395,7.7208,0.597248,0.0147057,5.38516,0.0049
0.14998,127934.422,3.9934,2.1416,,0.0,7.8304,0.59893,,,,,7.8304,0.598942,0.0162599,5.23874,0.0049
0.14998,128594.422,4.0049,2.1691,0.0,,7.9403,0.60065,,,,,7.9403,0.600669,0.0168555,5.17024,0.0049
0.14998,129254.422,4.0169,2.1966,0.0,,8.0506,0.60245,,,,,8.0506,0.602465,0.0156958,5.12067,0.0049
0.14998,129914.422,4.0288,2.2241,0.42934,2.3488,8.1612,0.60424,,,,,8.1612,0.604234,0.015346,5.23874,0.0049
0.14998,130574.422,4.04,2.2516,0.0,,8.2721,0.60592,,,,,8.2721,0.605944,0.0147915,5.25768,0.0049
0.14998,131234.422,4.0507,2.2791,,0.0,8.3833,0.60752,,,,,8.3833,0.60752,0.0133571,5.4726,0.0049
0.14999,131894.422,4.0609,2.3066,,0.0,8.4948,0.60909,,,,,8.4948,0.609049,0.0125637,5.86458,0.0049
0.14997,132554.422,4.0696,2.3341,0.0,,8.6065,0.61032,,,,,8.6065,0.610379,0.0108403,6.41755,0.0049
0.14997,133214.422,4.0769,2.3615,,,8.7185,0.61141,,,,,8.7185,0.611467,0.00771516,7.04215,0.0049
0.14998,133874.422,4.0818,2.389,,,8.8306,0.61219,4.0818,2.389,7.30799,0.140714,8.8306,0.61221,0.00498537,5.9207,0.0049
0.14998,134294.422,4.084,2.4065,0.0,,8.9021,0.61252,4.084,2.4065,7.95455,0.110714,8.9021,0.612488,0.00431235,5.9207,0.0049