File: Data/processed_data/cycle1_charge.csv
Charge_Capacity(Ah),Voltage_sm (V),Interpolated dV/dQ (V/Ah),Interpolated dQ/dV (Ah/V)
0.0500434,3.17487,3.45486,0.301115
0.0590908,3.20317,3.04758,0.335533
0.0681382,3.22862,2.75673,0.368667
0.0771856,3.25191,2.51566,0.397189
0.086233,3.27331,2.35442,0.434225
0.0952803,3.29296,2.14172,0.474905
0.104328,3.3111,1.90257,0.506457
0.113375,3.32807,0.799017,0.547098
0.122423,3.34367,2.24279,0.591327
0.13147,3.35798,-0.720916,0.629664
0.140517,3.37016,0.450275,0.738309
0.149565,3.37969,-0.121991,1.47525
0.158612,3.38681,0.647098,0.712152
0.167659,3.39241,-1.10886,-0.430682
0.176707,3.39703,-1.75489,1.19724
0.185754,3.40089,-1.58428,3.9658
0.194802,3.40419,-0.978209,6.15348
0.203849,3.40714,-0.317838,6.03875
0.212896,3.40995,0.016293,1.92918
0.221944,3.41295,0.0216625,0.015025
0.230991,3.41531,0.457501,1.20645
0.240039,3.41804,0.189719,4.5762
0.249086,3.42093,-0.00144255,1.43264
0.258133,3.42328,0.0792797,0.0117217
0.267181,3.42588,0.399271,1.8897
0.276228,3.42806,0.135876,5.28139
0.285276,3.43049,-0.00657293,0.62393
0.294323,3.43265,-0.0357492,-0.450653
0.30337,3.43513,0.191356,2.84637
0.312418,3.43753,0.00763333,-0.0922599
0.321465,3.43981,3.54615e-05,3.89286
0.330513,3.44198,-1.39839e-05,-0.170301
0.33956,3.44462,0.00174548,0.596264
0.348607,3.44695,0.00957741,4.4304
0.357655,3.44933,0.00330061,4.47247
0.366702,3.45191,0.0214304,-0.0210545
0.375749,3.45463,0.22014,2.78737
0.384797,3.45726,-0.034486,-0.422214
0.393844,3.4599,-0.0205788,0.0562283
0.402892,3.46289,-0.0811136,1.98686
0.411939,3.46618,-0.0962396,4.33833
0.420986,3.46931,-0.0384865,4.08256
0.430034,3.4721,-0.0469467,-0.587056
0.439081,3.47558,0.25143,2.06312
0.448129,3.47901,0.0244465,1.18152
0.457176,3.48242,0.0451177,-0.289585
0.466223,3.48639,0.468996,1.67819
0.475271,3.48989,0.0444763,2.84863
0.484318,3.49348,0.215794,-0.296845
0.493366,3.49741,0.856933,1.84657
0.502413,3.50106,0.925897,3.87901
0.51146,3.50464,0.403464,2.39402
0.520508,3.50825,-0.0272512,-0.168102
0.529555,3.51209,0.428155,2.585
0.538603,3.51576,0.221167,1.33059
0.54765,3.51933,0.0569117,0.34494
0.556697,3.52307,0.495656,3.01588
0.565745,3.52677,0.037338,0.228036
0.574792,3.53008,0.171267,1.0719
0.58384,3.53373,0.496315,3.12894
0.592887,3.53748,-0.0515739,-0.326784
0.601934,3.54077,0.291089,1.87231
0.610982,3.54436,0.410288,2.75267
0.620029,3.54793,-0.0180303,-0.458054
0.629076,3.5512,0.0256809,1.61025
0.638124,3.55444,0.287235,2.12721
0.647171,3.55776,-0.0463834,-0.713583
0.656219,3.56092,-0.00458728,1.74943
0.665266,3.56381,0.00160977,0.260071
0.674313,3.56655,0.0483515,0.858524
0.683361,3.56951,0.13902,0.137956
0.692408,3.5726,0.24687,-1.23993
0.701456,3.57574,0.345157,-2.61342
0.710503,3.57884,0.407133,-3.32081
0.71955,3.5818,0.406055,-2.70039
0.728598,3.58454,0.315176,-0.0904549
0.737645,3.58704,0.137805,4.06079
0.746693,3.58957,0.0062338,4.54176
0.75574,3.59221,-0.0202705,-0.294595
0.764787,3.59481,0.33022,0.150765
0.773835,3.59748,0.302424,3.94552
0.782882,3.59963,0.0136455,4.3581
0.79193,3.60174,0.0113414,-0.119065
0.800977,3.60388,0.133949,2.05267
0.810024,3.60626,-0.0318006,-0.498038
0.819072,3.60848,-0.000842125,-0.0191861
0.828119,3.61055,0.00555353,0.81358
0.837166,3.61249,0.0122731,4.26556
0.846214,3.61444,0.0134272,8.14726
0.855261,3.61648,0.0102302,10.1074
0.864309,3.61865,0.00389689,7.79488
0.873356,3.621,-0.000667181,0.203948
0.882403,3.62291,-0.0193729,0.0848135
0.891451,3.62522,0.317078,0.707874
0.900498,3.62739,0.293032,5.23452
0.909546,3.62919,0.0650415,6.96116
0.918593,3.63077,-0.000512238,0.0763668
0.92764,3.6328,-0.0161829,0.050166
0.936688,3.63494,0.335688,0.042953
0.945735,3.63704,0.465716,0.104669
0.954783,3.63894,0.354989,0.0909143
0.96383,3.64074,0.145534,0.0407722
0.972877,3.64253,-0.0190854,-0.00610974
0.981925,3.64434,0.246735,-0.0233385
0.990972,3.64617,0.535827,-0.941484
1.00002,3.64804,0.616976,-2.37785
1.00907,3.64997,0.552974,-3.42366
1.01811,3.65196,0.406612,-3.17011
1.02716,3.65404,0.240683,-0.708442
1.03621,3.65619,0.11158,4.24011
1.04526,3.65828,0.0325717,7.70658
1.0543,3.66011,-0.000887438,3.9707
1.06335,3.66222,0.00206,-0.05445
1.0724,3.6642,0.159165,-0.121106
1.08145,3.66671,0.344515,2.94338
1.09049,3.66872,0.16045,6.68779
1.09954,3.67045,-0.0040539,3.58439
1.10859,3.67257,9.03533e-05,-0.0173418
1.11764,3.67471,0.00852385,-0.37526
1.12668,3.67682,0.0555812,-1.61425
1.13573,3.67896,0.129119,-3.13605
1.14478,3.68115,0.214647,-4.64605
1.15383,3.68339,0.297677,-5.84963
1.16287,3.68569,0.363719,-6.45218
1.17192,3.68808,0.398285,-6.15907
1.18097,3.69055,0.386885,-4.6757
1.19001,3.69312,0.315031,-1.70744
1.19906,3.69579,0.173319,2.81657
1.20811,3.69845,0.0310456,5.5048
1.21716,3.7009,0.00625353,0.867531
1.2262,3.70354,0.128846,0.000608098
1.23525,3.70633,0.370901,1.8634
1.2443,3.70876,0.0855961,4.45241
1.25335,3.71172,0.00244144,0.142985
1.26239,3.7145,0.266382,2.9595
1.27144,3.71718,-0.0355222,-0.378868
1.28049,3.72024,-0.0126096,-0.0800494
1.28954,3.72324,-0.0684207,0.142557
1.29858,3.72618,-0.115881,1.20477
1.30763,3.72907,-0.1547,2.87899
1.31668,3.73192,-0.184589,4.93762
1.32573,3.73477,-0.205258,7.15306
1.33477,3.73762,-0.216416,9.29772
1.34382,3.7405,-0.217775,11.144
1.35287,3.74343,-0.209043,12.4643
1.36192,3.74643,-0.189932,13.031
1.37096,3.74952,-0.160151,12.6166
1.38001,3.75271,-0.119411,10.9933
1.38906,3.75603,-0.0674216,7.93376
1.3981,3.7595,-0.00389342,3.21021
1.40715,3.76275,-0.0454879,-0.51493
1.4162,3.76591,0.198727,1.76369
1.42525,3.76886,0.0124218,1.17995
1.43429,3.77203,0.000587294,-0.272484
1.44334,3.77512,-0.00038632,1.21956
1.45239,3.77823,0.0063375,3.7097
1.46144,3.78134,0.0218203,6.36623
1.47048,3.78445,0.0448246,9.13989
1.47953,3.78755,0.0741129,11.9814
1.48858,3.79066,0.108448,14.8415
1.49763,3.79376,0.146591,17.6708
1.50667,3.79686,0.187307,20.4202
1.51572,3.79996,0.229356,23.0403
1.52477,3.80305,0.271502,25.4819
1.53382,3.80613,0.312506,27.6956
1.54286,3.80921,0.351132,29.6323
1.55191,3.81228,0.386142,31.2426
1.56096,3.81534,0.416299,32.4772
1.57001,3.81839,0.440364,33.2869
1.57905,3.82142,0.457101,33.6224
1.5881,3.82445,0.465271,33.4344
1.59715,3.82747,0.463639,32.6737
1.60619,3.83047,0.450965,31.2909
1.61524,3.83345,0.426012,29.2368
1.62429,3.83643,0.387543,26.4621
1.63334,3.83938,0.334321,22.9176
1.64238,3.84232,0.265108,18.5539
1.65143,3.84524,0.178666,13.3217
1.66048,3.84814,0.0737576,7.17191
1.66953,3.85102,-0.0253707,0.475167
1.67857,3.85404,0.36135,2.75243
1.68762,3.85727,-0.0365813,-0.584003
1.69667,3.86024,-0.00163693,2.78794
1.70572,3.86341,0.000121785,-0.076833
1.71476,3.8663,-0.00261915,2.65436
1.72381,3.86941,-0.00356263,5.46996
1.73286,3.87264,-0.00319116,7.36672
1.74191,3.87589,-0.00198774,7.34162
1.75095,3.87904,-0.000435361,4.39164
1.76,3.88215,-0.000592547,-0.26013
1.76905,3.88561,0.0173486,0.383396
1.7781,3.88893,0.0836654,-0.0481123
1.78714,3.89207,0.1777,-1.28759
1.79619,3.89504,0.277179,-2.75565
1.80524,3.89784,0.359829,-3.87295
1.81428,3.90047,0.403377,-4.0601
1.82333,3.90294,0.38555,-2.73774
1.83238,3.90524,0.284165,0.6693
1.84143,3.90748,0.116703,4.90184
1.85047,3.91003,0.00221053,4.00366
1.85952,3.91239,0.00068798,-0.204833
1.86857,3.91501,0.00467552,-0.0892481
1.87762,3.91755,0.0470679,-0.0747611
1.88666,3.91971,0.112925,0.219199
1.89571,3.92163,0.180095,0.483804
1.90476,3.92344,0.226427,0.410224
1.91381,3.92528,0.230003,-0.30467
1.92285,3.92724,0.185692,-1.55364
1.9319,3.92931,0.116137,-2.55061
1.94095,3.93151,0.0465854,-2.44582
1.95,3.93383,0.00228435,-0.389485
1.95904,3.93625,5.14119e-06,3.72782
1.96809,3.93864,0.00894042,5.8601
1.97714,3.94087,-0.00739335,1.00758
1.98619,3.94322,0.169234,-1.49877
1.99523,3.94594,0.262791,2.02065
2.00428,3.94877,0.0971212,5.11602
2.01333,3.95119,-0.00289805,1.63367
2.02237,3.95424,0.0142605,0.362728
2.03142,3.95722,0.258202,3.14193
2.04047,3.95991,0.554695,5.47246
2.04952,3.96272,0.604363,5.44462
2.05856,3.96603,0.129806,1.28283
2.06761,3.96907,0.00254334,1.12896
2.07666,3.97257,-0.0292145,-0.466335
2.08571,3.97586,0.302487,2.32554
2.09475,3.97932,0.0222854,0.882658
2.1038,3.98275,0.0202157,-0.159049
2.11285,3.9865,0.478464,1.53618
2.1219,3.99031,0.0640828,2.95291
2.13094,3.99384,0.186117,-0.241015
2.13999,3.99775,0.741265,0.0229607
2.14904,4.00162,0.671191,-0.59009
2.15809,4.00539,0.342775,0.57564
2.16713,4.00918,0.0641949,2.81965
2.17618,4.01343,0.00434889,-0.100722
2.18523,4.0174,0.355615,-0.0595515
2.19428,4.0211,0.700842,2.6873
2.20332,4.02496,0.440421,2.35214
2.21237,4.02905,-0.0297067,-0.0868773
2.22142,4.03286,0.32032,-0.2622
2.23046,4.03655,0.3765,1.29906
2.23951,4.04015,0.04702,2.82221
2.24856,4.04385,0.20957,-0.348915
2.25761,4.04774,0.432557,2.25926
2.26665,4.05104,-0.0234795,2.21618
2.2757,4.05451,0.368163,-0.042351
2.28475,4.05797,0.904193,2.65415
2.2938,4.06093,0.964679,5.13638
2.30284,4.0639,0.580159,4.4253
2.31189,4.0671,-0.0268478,-0.212005
2.32094,4.0696,0.0991402,0.0122389
2.32999,4.07231,0.253062,-0.878524
2.33903,4.07498,0.300882,0.215089
2.34808,4.07733,0.200094,4.83614
2.35713,4.07923,0.0552178,7.48301
2.36618,4.08057,-0.00227955,1.65681
2.37522,4.082,-0.000190454,0.111365
2.38427,4.08334,2.71027e-05,0.0035841
2.39332,4.084,3.55391e-06,-0.000247751
2.40237,4.08452,0.0162508,-1.16415
2.41141,4.08504,0.0544897,-3.91402
2.42046,4.08557,0.111186,-7.98915
2.42951,4.08611,0.182806,-13.1288
2.43855,4.08668,0.265816,-19.0723
2.4476,4.08727,0.356682,-25.5588
2.45665,4.0879,0.451869,-32.3278
2.4657,4.08857,0.547845,-39.1183
2.47474,4.08927,0.641075,-45.6698
2.48379,4.09003,0.728024,-51.7215
2.49284,4.09085,0.80516,-57.0127
2.50189,4.09173,0.868948,-61.2826
2.51093,4.09267,0.915855,-64.2705
2.51998,4.09369,0.942345,-65.7158
2.52903,4.09478,0.944886,-65.3576
2.53808,4.09596,0.919944,-62.9353
2.54712,4.09723,0.863984,-58.1882
2.55617,4.09859,0.773473,-50.8555
2.56522,4.10006,0.644877,-40.6764
2.57427,4.10163,0.474661,-27.3904
2.58331,4.10332,0.259292,-10.7366
2.59236,4.10506,0.0140786,7.07114
2.59999,4.1061,0.0025592,-0.902782