File: Data/processed_data/Cycle 970_charge.csv
Current(A),Test_Time(s),Voltage(V),Charge_Capacity(Ah),dV/dQ(V/Ah),dQ/dV(Ah/V),Charge_Energy(Wh),Power(W),Downsampled Voltage (V),Downsampled Capacity (Ah),dQ/dV from downsampled Voltage (Ah/V),dV/dQ from downsampled Cpacity (V/Ah),Downsampled Energy (Wh),Downsampled Power (W),dP/dE from downsampled Energy (W/Wh),dQ/dV from LEAN (Ah/V),Delta_V (V) in LEAN
0.15,1350.906,4.2001,0.06462,0.0,0.0,0.27207,0.63002,4.2001,0.06462,-0.00036912,-3042.16,,,,1.8168,0.0056
0.14997,76726.487,3.2991,0.08496,2.2127,0.45717,0.26924,0.49477,3.2991,0.08496,0.467371,2.14,0.26924,0.494778,0.0973159,3.72528,0.0056
0.14997,77326.486,3.347,0.10995,1.7632,0.57706,0.3523,0.50195,3.347,0.10995,0.589703,1.7,0.3523,0.501941,0.0757602,3.90011,0.0056
0.14998,77926.487,3.3832,0.13494,0.0,0.8037,0.43642,0.50741,3.3832,0.13494,0.901291,1.11333,0.43642,0.507402,0.0509617,4.2658,0.0056
0.14997,78526.487,3.4025,0.15993,0.0,,0.52124,0.51027,3.4025,0.15993,1.91257,0.526974,0.52124,0.510321,0.0230425,5.54579,0.0056
0.14998,79126.488,3.4129,0.18492,,,0.6064,0.51187,,,,,0.6064,0.511876,0.0153874,6.01193,0.0056
0.14999,79726.487,3.4207,0.20991,0.0,,0.69179,0.51307,,,,,0.69179,0.513063,0.0126883,6.77746,0.0056
0.14998,80326.487,3.4278,0.2349,0.0,0.0,0.77736,0.5141,,,,,0.77736,0.514087,0.0120894,7.01048,0.0056
0.14998,80926.488,3.4344,0.25989,0.0,0.0,0.8631,0.51509,,,,,0.8631,0.515087,0.00993377,7.12518,0.0056
0.14998,81526.487,3.4407,0.28487,,0.0,0.949,0.51604,,,,,0.949,0.516023,0.0106212,7.20143,0.0056
0.14997,82126.487,3.447,0.30986,,,1.0351,0.51695,,,,,1.0351,0.516957,0.010852,7.19333,0.0056
0.14998,82726.486,3.4536,0.33486,,,1.1213,0.51797,,,,,1.1213,0.517944,0.0116027,6.91003,0.0056
0.14998,83326.488,3.4605,0.35984,0.0,,1.2077,0.51901,,,,,1.2077,0.518999,0.0124941,6.68511,0.0056
0.14997,83926.487,3.4682,0.38483,0.0,0.0,1.2942,0.52013,,,,,1.2942,0.520143,0.0140649,6.48421,0.0056
0.14997,84526.487,3.4763,0.40982,0.32922,2.9511,1.381,0.52134,,,,,1.381,0.521382,0.0149774,6.09432,0.0056
0.14998,85126.488,3.4855,0.43482,0.0,0.0,1.468,0.52276,,,,,1.468,0.522757,0.0167114,5.88551,0.0056
0.14997,85726.487,3.4953,0.45981,,0.0,1.5552,0.52419,,,,,1.5552,0.524233,0.0171873,5.73674,0.0056
0.14998,86326.489,3.5057,0.4848,,0.0,1.6427,0.52578,3.5057,0.4848,2.35984,0.42381,1.6427,0.525756,0.0180052,5.71253,0.0056
0.14998,86926.487,3.5161,0.50979,0.41677,0.0,1.7305,0.52734,,,,,1.7305,0.527323,0.0178276,5.71253,0.0056
0.14998,87526.488,3.5265,0.53479,0.41261,2.4431,1.8185,0.5289,3.5265,0.53479,2.44065,0.410195,1.8185,0.528865,0.0184278,5.75284,0.0056
0.14997,88126.487,3.5365,0.55978,0.4032,2.487,1.9067,0.53037,,,,,1.9067,0.53037,0.0176356,5.82098,0.0056
0.14998,88726.489,3.5465,0.58477,0.39687,2.5404,1.9952,0.5319,3.5465,0.58477,2.6041,0.385208,1.9952,0.531875,0.0166206,5.8613,0.0056
0.14997,89326.487,3.5562,0.60977,0.38836,0.0,2.084,0.53332,,,,,2.084,0.533322,0.0163092,5.93568,0.0056
0.14997,89926.488,3.5655,0.63476,0.0,0.0,2.173,0.53472,,,,,2.173,0.534733,0.0157692,6.16256,0.0056
0.14999,90526.488,3.5743,0.65975,,,2.2622,0.53611,3.5743,0.65975,2.94816,0.339907,2.2622,0.536059,0.0139044,6.21088,0.0056
0.14998,91126.487,3.5826,0.68475,,,2.3517,0.53732,,,,,2.3517,0.537289,0.0144807,6.39372,0.0056
0.14997,91726.488,3.5905,0.70974,,,2.4413,0.53847,,,,,2.4413,0.53848,0.0129894,6.56856,0.0056
0.14997,92326.487,3.598,0.73473,0.0,0.0,2.5311,0.53959,3.598,0.73473,3.46879,0.288727,2.5311,0.539589,0.0124242,6.7514,0.0056
0.14997,92926.486,3.6049,0.75972,0.0,,2.6211,0.54063,,,,,2.6211,0.54065,0.0123882,7.12518,0.0056
0.14998,93526.487,3.6115,0.78472,0.0,3.8486,2.7113,0.54165,,,,,2.7113,0.541625,0.0103896,7.30988,0.0056
0.14998,94126.487,3.6176,0.80971,0.0,,2.8016,0.54257,,,,,2.8016,0.542541,0.0102187,7.41648,0.0056
0.14997,94726.487,3.6236,0.8347,0.0,,2.8921,0.54343,,,,,2.8921,0.543436,0.00917925,7.51508,0.0056
0.14998,95326.487,3.6292,0.85969,,0.0,2.9828,0.54431,,,,,2.9828,0.544286,0.0102646,7.67557,0.0056
0.14997,95926.489,3.6349,0.88469,,0.0,3.0735,0.54513,,,,,3.0735,0.545149,0.0096128,7.74195,0.0056
0.14997,96526.487,3.6404,0.90968,0.0,,3.1644,0.54595,,,,,3.1644,0.545985,0.00959973,7.7481,0.0056
0.14998,97126.487,3.6459,0.93467,0.22311,0.0,3.2555,0.54681,3.6459,0.93467,4.58247,0.220055,3.2555,0.546822,0.00949051,7.75806,0.0056
0.14998,97726.487,3.6515,0.95967,0.0,4.5263,3.3467,0.54765,,,,,3.3467,0.547645,0.00955949,7.76606,0.0056
0.14998,98326.487,3.6571,0.98466,0.0,,3.438,0.54849,,,,,3.438,0.548507,0.00873414,7.72399,0.0056
0.14998,98926.488,3.6628,1.0097,0.0,0.0,3.5295,0.54935,,,,,3.5295,0.549344,0.00945286,7.67557,0.0056
0.14998,99526.486,3.6686,1.0346,0.0,,3.6211,0.55022,,,,,3.6211,0.550223,0.0101152,7.51693,0.0056
0.14998,100126.487,3.6745,1.0596,0.0,,3.7129,0.5511,,,,,3.7129,0.551105,0.00977085,7.32413,0.0056
0.14998,100726.488,3.6808,1.0846,,,3.8048,0.55205,,,,,3.8048,0.552049,0.0112719,7.17536,0.0056
0.14997,101326.487,3.6872,1.1096,0.0,,3.8969,0.55297,,,,,3.8969,0.553006,0.0101449,7.06691,0.0056
0.14998,101926.488,3.6941,1.1346,,,3.9891,0.55404,3.6941,1.1346,3.70483,0.27,3.9891,0.554016,0.011304,6.90203,0.0056
0.14998,102526.488,3.7012,1.1596,,0.0,4.0815,0.55511,,,,,4.0815,0.555073,0.0111077,6.7675,0.0056
0.14998,103126.487,3.7084,1.1846,,0.0,4.1741,0.55619,,,,,4.1741,0.556191,0.0122775,6.62683,0.0056
0.14997,103726.487,3.716,1.2096,0.30429,0.0,4.2669,0.55729,,,,,4.2669,0.557326,0.0131499,6.38386,0.0056
0.14997,104326.486,3.724,1.2346,0.0,,4.3599,0.55849,,,,,4.3599,0.558522,0.0131592,6.37761,0.0056
0.14998,104926.488,3.7325,1.2596,,,4.4531,0.5598,,,,,4.4531,0.559763,0.014147,6.3454,0.0056
0.14998,105526.488,3.7409,1.2846,,,4.5464,0.56106,,,,,4.5464,0.561053,0.0130397,6.22698,0.0056
0.14997,106126.488,3.7495,1.3096,,,4.6401,0.56231,,,,,4.6401,0.562314,0.0128789,6.23694,0.0056
0.14997,106726.487,3.7581,1.3346,0.0,,4.7339,0.5636,3.7581,1.3346,2.8795,0.347333,4.7339,0.56361,0.0139749,6.1607,0.0056
0.14998,107326.488,3.7668,1.3596,0.34614,2.8747,4.8279,0.56494,,,,,4.8279,0.564915,0.0138413,6.14459,0.0056
0.14997,107926.486,3.7755,1.3845,0.0,0.0,4.9221,0.56621,,,,,4.9221,0.566192,0.0140304,6.1687,0.0056
0.14997,108526.488,3.784,1.4095,,0.0,5.0166,0.56749,,,,,5.0166,0.567489,0.0134563,6.28712,0.0056
0.14999,109126.488,3.7925,1.4345,,,5.1113,0.56884,,,,,5.1113,0.568778,0.0127364,6.26916,0.0056
0.14998,109726.488,3.8008,1.4595,,,5.2062,0.57004,,,,,5.2062,0.57002,0.0118843,6.30323,0.0056
0.14998,110326.487,3.8091,1.4845,,,5.3013,0.57129,,,,,5.3013,0.571262,0.013224,6.32743,0.0056
0.14998,110926.488,3.8172,1.5095,,3.0621,5.3966,0.5725,,,,,5.3966,0.5725,0.0133936,6.41978,0.0056
0.14998,111526.489,3.8253,1.5345,,0.0,5.4921,0.57372,,,,,5.4921,0.573707,0.0130785,6.43589,0.0056
0.14997,112126.488,3.8332,1.5595,0.0,0.0,5.5878,0.57487,,,,,5.5878,0.574885,0.0125,6.41793,0.0056
0.14997,112726.488,3.8412,1.5845,0.0,,5.6837,0.57606,,,,,5.6837,0.576079,0.0120355,6.43589,0.0056
0.14998,113326.486,3.8492,1.6095,,,5.7798,0.5773,,,,,5.7798,0.577281,0.0119656,6.41793,0.0056
0.14998,113926.488,3.8571,1.6345,,3.1289,5.8761,0.57849,,,,,5.8761,0.57849,0.0116989,6.43589,0.0056
0.14998,114526.486,3.8651,1.6595,,0.0,5.9726,0.57969,,,,,5.9726,0.579703,0.0131012,6.38571,0.0056
0.14997,115126.488,3.8732,1.6845,0.0,0.0,6.0693,0.58086,,,,,6.0693,0.580892,0.0103249,6.29336,0.0056
0.14998,115726.487,3.8814,1.7095,0.0,,6.1662,0.58213,,,,,6.1662,0.582132,0.0127572,6.31933,0.0056
0.14998,116326.487,3.8896,1.7344,0.0,,6.2633,0.58336,3.8896,1.7344,3.00649,0.332667,6.2633,0.583371,0.0119115,6.30137,0.0056
0.14998,116926.487,3.898,1.7594,0.0,,6.3606,0.58462,3.898,1.7594,3.01292,0.332,6.3606,0.584616,0.013591,6.32743,0.0056
0.14997,117526.489,3.9063,1.7844,0.3311,,6.4582,0.58583,3.9063,1.7844,3.0949,0.324,6.4582,0.585844,0.0125961,6.40983,0.0056
0.14998,118126.487,3.914,1.8094,0.0,,6.5559,0.58702,3.914,1.8094,3.38278,0.296121,6.5559,0.587006,0.0111914,6.7433,0.0056
0.14998,118726.488,3.9211,1.8344,,0.0,6.6538,0.58809,,,,,6.6538,0.588102,0.0106326,6.91013,0.0056
0.14997,119326.486,3.928,1.8594,0.0,,6.7519,0.58908,,,,,6.7519,0.589085,0.00996554,7.02659,0.0056
0.14997,119926.487,3.9345,1.8844,0.0,0.0,6.8501,0.59006,,,,,6.8501,0.590061,0.00995546,6.93424,0.0056
0.14998,120526.488,3.9414,1.9094,,0.0,6.9486,0.59113,,,,,6.9486,0.591105,0.0105548,6.79357,0.0056
0.14998,121126.488,3.9485,1.9344,,0.0,7.0471,0.5922,,,,,7.0471,0.592192,0.0116637,6.61873,0.0056
0.14997,121726.487,3.9561,1.9594,0.30521,,7.1459,0.5933,,,,,7.1459,0.59333,0.0117976,6.41793,0.0056
0.14998,122326.487,3.9646,1.9844,0.0,,7.2449,0.59461,,,,,7.2449,0.594595,0.0130482,6.13649,0.0056
0.14997,122926.487,3.9735,2.0094,0.0,,7.3441,0.59591,,,,,7.3441,0.595927,0.0146618,6.01007,0.0056
0.14997,123526.487,3.983,2.0344,,,7.4435,0.59733,,,,,7.4435,0.597332,0.0141255,5.87926,0.0056
0.14998,124126.488,3.9931,2.0594,0.0,,7.5432,0.59889,,,,,7.5432,0.598869,0.0144372,5.72863,0.0056
0.14998,124726.487,4.0038,2.0843,,,7.6431,0.60049,,,,,7.6431,0.600466,0.0161991,5.63628,0.0056
0.14998,125326.487,4.0146,2.1093,,0.0,7.7433,0.60211,4.0146,2.1093,2.40786,0.417143,7.7433,0.602069,0.0158355,5.59597,0.0056
0.14998,125926.489,4.0253,2.1343,0.0,,7.8438,0.60371,,,,,7.8438,0.603719,0.0163869,5.59597,0.0056
0.14998,126526.489,4.0361,2.1593,0.42892,0.0,7.9445,0.60533,,,,,7.9445,0.605323,0.0160259,5.65239,0.0056
0.14998,127126.488,4.0464,2.1843,0.4143,0.0,8.0455,0.60688,4.0464,2.1843,2.50313,0.4,8.0455,0.606884,0.0141678,5.87926,0.0056
0.14998,127726.488,4.0562,2.2093,0.3933,0.0,8.1468,0.60835,,,,,8.1468,0.608366,0.0147161,5.91958,0.0056
0.14998,128326.487,4.0656,2.2343,0.0,0.0,8.2483,0.60976,,,,,8.2483,0.609737,0.0128651,6.24123,0.0056
0.14998,128926.487,4.0737,2.2593,,0.0,8.35,0.61097,4.0737,2.2593,3.42616,0.294424,8.35,0.610961,0.0110708,6.91061,0.0056
0.14997,129526.488,4.08,2.2843,0.0,,8.4519,0.61188,,,,,8.4519,0.611886,0.00694126,8.01159,0.0056
0.14998,130126.486,4.084,2.3093,0.0,0.0,8.5539,0.61252,,,,,8.5539,0.61252,0.00411043,8.01159,0.0056
0.14998,130726.487,4.0868,2.3343,0.0,7.6583,8.656,0.61294,,,,,8.656,0.612939,0.00437463,6.4478,0.0056
0.14997,130966.487,4.0881,2.3443,0.0,0.0,8.6969,0.61309,4.0881,2.3443,9.09091,0.0996651,8.6969,0.613098,0.00246583,6.4478,0.0056