File: Data/processed_data/Cycle 970_discharge.csv
Current(A),Test_Time(s),Voltage(V),Discharge_Capacity(Ah),dV/dQ(V/Ah),dQ/dV(Ah/V),Discharge_Energy(Wh),Power(W),Downsampled Voltage (V),Downsampled Capacity (Ah),dQ/dV from downsampled Voltage (Ah/V),dV/dQ from downsampled Cpacity (V/Ah),Downsampled Energy (Wh),Downsampled Power (W),dP/dE from downsampled Energy (W/Wh),dQ/dV from LEAN (Ah/V),Delta_V (V) in LEAN
-0.15001,11311.219,4.0701,0.26495,,,1.0846,-0.61056,,,,,1.0846,-0.61056,0.00432043,4.72727,0.0056
-0.15002,11971.218,4.0674,0.29244,0.0,0.0,1.1964,-0.61019,,,,,1.1964,-0.610142,0.00422264,5.55619,0.0056
-0.15,12631.218,4.0635,0.31994,,,1.3082,-0.60953,,,,,1.3082,-0.609592,0.00495452,5.55619,0.0056
-0.15001,13291.22,4.0585,0.34743,,,1.4199,-0.60882,,,,,1.4199,-0.608844,0.00743775,5.26425,0.0056
-0.15001,13951.219,4.0522,0.37493,,,1.5314,-0.60787,,,,,1.5314,-0.607882,0.00912404,4.45024,0.0056
-0.15002,14611.219,4.045,0.40242,0.0,0.0,1.6427,-0.60683,,,,,1.6427,-0.606782,0.0112984,3.55453,0.0056
-0.15,15271.219,4.0372,0.42992,0.0,,1.7538,-0.60558,,,,,1.7538,-0.605587,0.0113884,3.35527,0.0056
-0.15001,15931.22,4.0287,0.45741,,,1.8647,-0.60435,,,,,1.8647,-0.604319,0.0114827,3.09108,0.0056
-0.15001,16591.218,4.0195,0.4849,0.0,,1.9753,-0.60297,,,,,1.9753,-0.602972,0.0127343,2.98355,0.0056
-0.15,17251.22,4.0099,0.51239,,,2.0857,-0.60149,4.0099,0.51239,-2.89648,-0.345461,2.0857,-0.601535,0.013704,2.8223,0.0056
-0.15,17911.219,4.0,0.53989,,,2.1958,-0.6,,,,,2.1958,-0.600038,0.0154021,2.7268,0.0056
-0.15001,18571.219,3.9898,0.56738,,,2.3056,-0.59851,3.9898,0.56738,-2.59828,-0.385,2.3056,-0.598482,0.0146239,2.68051,0.0056
-0.15001,19231.218,3.9796,0.59488,,,2.4152,-0.59698,,,,,2.4152,-0.596967,0.0154579,2.67308,0.0056
-0.15001,19891.219,3.9695,0.62237,,,2.5245,-0.59546,,,,,2.5245,-0.595432,0.0134344,2.73053,0.0056
-0.15001,20551.218,3.9594,0.64986,,,2.6335,-0.59395,,,,,2.6335,-0.593949,0.0134139,2.87692,0.0056
-0.15002,21211.219,3.95,0.67736,,,2.7422,-0.59258,3.95,0.67736,-3.01993,-0.332,2.7422,-0.592532,0.0127004,2.99472,0.0056
-0.15,21871.219,3.9409,0.70485,0.0,0.0,2.8507,-0.59114,,,,,2.8507,-0.591192,0.0122984,3.09478,0.0056
-0.15,22531.218,3.9325,0.73235,0.30973,3.2934,2.9589,-0.58988,,,,,2.9589,-0.589907,0.0121735,3.37099,0.0056
-0.15001,23191.219,3.9244,0.75985,,0.0,3.0669,-0.5887,,,,,3.0669,-0.5887,0.0110996,3.53224,0.0056
-0.15002,23851.218,3.917,0.78734,0.0,,3.1747,-0.58763,,,,,3.1747,-0.587564,0.0102873,3.68979,0.0056
-0.15001,24511.22,3.9098,0.81484,0.0,0.0,3.2824,-0.58651,3.9098,0.81484,-3.79869,-0.263333,3.2824,-0.586491,0.00953666,3.8705,0.0056
-0.15,25171.218,3.9027,0.84234,0.25579,,3.3898,-0.58541,,,,,3.3898,-0.585431,0.00967363,3.83619,0.0056
-0.15001,25831.219,3.8954,0.86983,,,3.497,-0.58435,,,,,3.497,-0.584362,0.010773,3.70551,0.0056
-0.15001,26491.218,3.8876,0.89733,,3.3745,3.604,-0.58318,,,,,3.604,-0.58318,0.0123339,3.28291,0.0056
-0.15001,27151.218,3.8792,0.92483,0.0,0.0,3.7108,-0.58192,,,,,3.7108,-0.581898,0.0123771,3.07163,0.0056
-0.15001,27811.218,3.8697,0.95232,,,3.8173,-0.58049,3.8697,0.95232,-2.75969,-0.364115,3.8173,-0.580466,0.0137265,2.79542,0.0056
-0.15001,28471.219,3.8596,0.97982,,,3.9236,-0.57898,,,,,3.9236,-0.578952,0.0144346,2.71937,0.0056
-0.15,29131.219,3.8491,1.0073,,,4.0296,-0.57737,,,,,4.0296,-0.577413,0.0141292,2.73796,0.0056
-0.15,29791.218,3.8393,1.0348,0.0,,4.1353,-0.5759,,,,,4.1353,-0.575909,0.0142058,2.79628,0.0056
-0.15,30451.219,3.8296,1.0623,,,4.2407,-0.57444,3.8296,1.0623,-2.80619,-0.356444,4.2407,-0.574459,0.0142604,2.8649,0.0056
-0.15002,31111.219,3.82,1.0898,,0.0,4.3459,-0.57308,,,,,4.3459,-0.57305,0.0132921,2.91867,0.0056
-0.15001,31771.219,3.8108,1.1173,0.0,0.0,4.4508,-0.57166,,,,,4.4508,-0.571631,0.0131937,2.94181,0.0056
-0.15,32431.218,3.8016,1.1448,,,4.5554,-0.57024,,,,,4.5554,-0.570247,0.0123531,2.99558,0.0056
-0.15,33091.219,3.7922,1.1723,0.33671,2.989,4.6598,-0.56883,,,,,4.6598,-0.568874,0.0132923,2.99472,0.0056
-0.15,33751.219,3.7831,1.1998,,,4.764,-0.56747,,,,,4.764,-0.56751,0.0127482,3.01044,0.0056
-0.15,34411.219,3.7741,1.2273,0.0,0.0,4.8679,-0.56612,3.7741,1.2273,-3.01292,-0.332,4.8679,-0.56613,0.0138273,3.03732,0.0056
-0.15001,35071.219,3.7651,1.2548,,0.0,4.9715,-0.5648,,,,,4.9715,-0.564766,0.0138881,3.01872,0.0056
-0.15001,35731.219,3.7559,1.2823,0.0,,5.0749,-0.56342,,,,,5.0749,-0.563391,0.0135983,2.97986,0.0056
-0.15,36391.218,3.7466,1.3098,,,5.1781,-0.56199,,,,,5.1781,-0.561991,0.0131292,2.93812,0.0056
-0.15,37051.217,3.7372,1.3373,0.0,2.9157,5.281,-0.56058,,,,,5.281,-0.560585,0.0130481,2.8835,0.0056
-0.15001,37711.218,3.7276,1.3648,,,5.3836,-0.55918,,,,,5.3836,-0.559172,0.013511,2.89921,0.0056
-0.15001,38371.218,3.7181,1.3923,,0.0,5.486,-0.55775,3.7181,1.3923,-2.86935,-0.349333,5.486,-0.557775,0.0138168,2.95298,0.0056
-0.15001,39031.218,3.709,1.4198,0.0,0.0,5.5881,-0.55639,,,,,5.5881,-0.556374,0.0140274,3.01044,0.0056
-0.15001,39691.218,3.6999,1.4473,,,5.6899,-0.55502,,,,,5.6899,-0.555008,0.0121578,3.0642,0.0056
-0.15002,40351.218,3.6911,1.4748,0.0,,5.7916,-0.55374,,,,,5.7916,-0.553686,0.0132421,3.19028,0.0056
-0.15001,41011.218,3.6826,1.5023,0.30854,0.0,5.8929,-0.55243,,,,,5.8929,-0.552424,0.011707,3.29408,0.0056
-0.15,41671.219,3.6744,1.5298,,,5.9941,-0.55116,,,,,5.9941,-0.551212,0.0116347,3.53597,0.0056
-0.15001,42331.219,3.6667,1.5573,0.0,3.5857,6.095,-0.55004,,,,,6.095,-0.550058,0.0108886,3.64346,0.0056
-0.15001,42991.218,3.6594,1.5848,0.0,0.0,6.1957,-0.54895,,,,,6.1957,-0.548948,0.0118384,3.74725,0.0056
-0.15001,43651.217,3.6524,1.6123,0.26112,3.8677,6.2963,-0.5479,,,,,6.2963,-0.547888,0.0109081,3.9697,0.0056
-0.15,44311.218,3.6456,1.6398,,,6.3966,-0.54684,,,,,6.3966,-0.546847,0.00937012,4.07349,0.0056
-0.15001,44971.219,3.639,1.6673,0.0,,6.4967,-0.54589,,,,,6.4967,-0.545861,0.0100619,4.14211,0.0056
-0.15001,45631.218,3.6322,1.6947,0.23873,4.2499,6.5967,-0.54487,,,,,6.5967,-0.544879,0.0100297,4.19214,0.0056
-0.15002,46291.22,3.6258,1.7222,,0.0,6.6965,-0.54394,3.6258,1.7222,-4.2279,-0.237143,6.6965,-0.543923,0.00840185,4.21159,0.0056
-0.15,46951.218,3.6193,1.7497,,,6.7961,-0.5429,,,,,6.7961,-0.542909,0.0100338,4.11523,0.0056
-0.15001,47611.218,3.6126,1.7772,0.24577,,6.8955,-0.54193,,,,,6.8955,-0.541878,0.0102927,4.03832,0.0056
-0.15,48271.219,3.6057,1.8047,,0.0,6.9948,-0.54086,,,,,6.9948,-0.540859,0.0105581,3.97713,0.0056
-0.15,48931.218,3.5986,1.8322,0.0,,7.0938,-0.53979,,,,,7.0938,-0.539814,0.0104416,3.9271,0.0056
-0.15,49591.218,3.5915,1.8597,,3.9174,7.1927,-0.53873,,,,,7.1927,-0.538771,0.0106889,3.79728,0.0056
-0.15001,50251.219,3.5843,1.8872,0.0,0.0,7.2913,-0.53768,,,,,7.2913,-0.53765,0.0121735,3.69637,0.0056
-0.15,50911.219,3.5769,1.9147,0.0,3.7166,7.3898,-0.53654,,,,,7.3898,-0.536544,0.0106482,3.64346,0.0056
-0.15,51571.219,3.5691,1.9422,0.0,0.0,7.488,-0.53537,,,,,7.488,-0.53539,0.0120206,3.50166,0.0056
-0.15001,52231.218,3.5612,1.9697,,,7.5861,-0.53422,,,,,7.5861,-0.53422,0.0114455,3.40156,0.0056
-0.15001,52891.218,3.5529,1.9972,0.0,,7.6839,-0.53297,,,,,7.6839,-0.532974,0.0136953,3.31353,0.0056
-0.15,53551.218,3.5446,2.0247,0.0,,7.7815,-0.53169,,,,,7.7815,-0.531687,0.0131081,3.20231,0.0056
-0.15001,54211.218,3.5359,2.0522,0.0,,7.8788,-0.53042,,,,,7.8788,-0.530393,0.0129993,3.11423,0.0056
-0.15,54871.218,3.5269,2.0797,0.0,3.0815,7.9759,-0.52904,,,,,7.9759,-0.529073,0.0131159,3.0642,0.0056
-0.15,55531.218,3.5178,2.1072,,0.0,8.0728,-0.52767,3.5178,2.1072,-2.95684,-0.338222,8.0728,-0.527701,0.0147025,2.94555,0.0056
-0.15001,56191.22,3.5084,2.1347,0.0,0.0,8.1694,-0.5263,,,,,8.1694,-0.5263,0.0149821,2.87233,0.0056
-0.15001,56851.219,3.4986,2.1622,0.0,,8.2657,-0.52482,,,,,8.2657,-0.52481,0.0148783,2.77313,0.0056
-0.15001,57511.218,3.4884,2.1897,0.0,,8.3618,-0.52329,,,,,8.3618,-0.523297,0.0161131,2.66105,0.0056
-0.15,58171.218,3.4781,2.2172,0.0,0.0,8.4576,-0.52172,3.4781,2.2172,-2.53896,-0.395,8.4576,-0.521712,0.0177591,2.57383,0.0056
-0.15,58831.219,3.4672,2.2447,,0.0,8.553,-0.52008,,,,,8.553,-0.520061,0.0175298,2.50435,0.0056
-0.15001,59491.219,3.456,2.2722,0.0,,8.6482,-0.51843,,,,,8.6482,-0.518425,0.0165279,2.52295,0.0056
-0.15,60151.218,3.4451,2.2997,,,8.7431,-0.51677,,,,,8.7431,-0.516801,0.0160758,2.70365,0.0056
-0.15001,60811.219,3.4353,2.3272,0.0,0.0,8.8377,-0.51533,,,,,8.8377,-0.515322,0.0151285,2.85747,0.0056
-0.15,61471.218,3.4264,2.3547,,3.118,8.932,-0.51396,,,,,8.932,-0.513979,0.0140576,3.13368,0.0056
-0.15001,62131.218,3.418,2.3822,0.0,,9.0261,-0.51273,3.418,2.3822,-3.28947,-0.304,9.0261,-0.512707,0.0135358,3.23005,0.0056
-0.15002,62791.218,3.4095,2.4097,,,9.12,-0.51149,,,,,9.12,-0.51146,0.0136844,3.15683,0.0056
-0.15001,63451.218,3.4004,2.4372,0.0,,9.2136,-0.51009,,,,,9.2136,-0.510091,0.0144522,2.83802,0.0056
-0.15001,64111.218,3.3903,2.4647,0.0,,9.307,-0.50858,3.3903,2.4647,-2.5,-0.4,9.307,-0.508597,0.0173041,2.45518,0.0056
-0.15001,64771.218,3.3786,2.4922,,,9.4,-0.50682,3.3786,2.4922,-2.04237,-0.49723,9.4,-0.506803,0.0223393,1.97427,0.0056
-0.15,65431.218,3.3633,2.5196,0.0,0.0,9.4927,-0.5045,,,,,9.4927,-0.504501,0.0283994,1.66091,0.0056
-0.15001,66091.219,3.3428,2.5471,0.0,,9.5849,-0.50145,3.3428,2.5471,-1.13636,-0.88,9.5849,-0.501457,0.0388704,1.14654,0.0056
-0.15,66751.22,3.3151,2.5746,0.0,0.8931,9.6765,-0.49727,3.3151,2.5746,-0.857254,-1.16667,9.6765,-0.497299,0.0525711,0.862897,0.0056
-0.15001,67411.219,3.2779,2.6021,,,9.7672,-0.49172,3.2779,2.6021,-0.64957,-1.54,9.7672,-0.491731,0.0724416,0.633023,0.0056
-0.15001,68071.218,3.2264,2.6296,,0.46865,9.8566,-0.48399,3.2264,2.6296,-0.471698,-2.12,9.8566,-0.484,0.100669,0.471772,0.0056
-0.15001,68731.219,3.1594,2.6571,2.68,0.3662,9.9445,-0.47394,3.1594,2.6571,-0.357289,-2.8,9.9445,-0.473942,0.131205,0.36798,0.0056
-0.15001,69391.22,3.0715,2.6846,3.6384,0.27437,10.03,-0.46076,3.0715,2.6846,-0.271803,-3.68,10.03,-0.460777,0.172915,0.27621,0.0056
-0.15001,70051.219,2.9485,2.7121,5.3254,0.1854,10.113,-0.4423,2.9485,2.7121,-0.183273,-5.46,10.113,-0.442318,0.292259,0.179847,0.0056
-0.15001,70711.217,2.7182,2.7396,13.025,0.076449,10.191,-0.40776,2.7182,2.7396,-0.0765041,-13.08,10.191,-0.407808,0.754172,0.0769103,0.0056
-0.14998,71086.394,2.5,2.7552,13.949,0.071232,10.232,-0.37495,2.5,2.7552,-0.0674157,-14.9714,,,,0.103793,0.0056