File: Data/processed_data/Cycle 745_charge.csv
Current(A),Test_Time(s),Voltage(V),Charge_Capacity(Ah),dV/dQ(V/Ah),dQ/dV(Ah/V),Charge_Energy(Wh),Power(W),Downsampled Voltage (V),Downsampled Capacity (Ah),dQ/dV from downsampled Voltage (Ah/V),dV/dQ from downsampled Cpacity (V/Ah),Downsampled Energy (Wh),Downsampled Power (W),dP/dE from downsampled Energy (W/Wh),dQ/dV from LEAN (Ah/V),Delta_V (V) in LEAN
0.14999,1156.42,4.2002,0.03924,0.0,0.0,0.16548,0.62999,,,,,0.16548,0.607772,2.52274,1.07385,0.0056
0.14998,76989.948,3.2172,0.05998,2.9605,0.34017,0.18596,0.48252,3.2172,0.05998,0.347758,2.88,0.18596,0.482514,0.133202,3.37858,0.0056
0.14998,77589.949,3.2802,0.08497,,0.44252,0.26718,0.49196,3.2802,0.08497,0.443102,2.26,0.26718,0.491967,0.102788,3.47888,0.0056
0.14999,78189.95,3.3303,0.10996,,0.54438,0.3498,0.49951,3.3303,0.10996,0.549617,1.8239,0.3498,0.499463,0.0811626,3.57109,0.0056
0.14998,78789.949,3.3698,0.13496,,0.71601,0.43355,0.5054,3.3698,0.13496,0.761451,1.32233,0.43355,0.505419,0.0584004,3.79391,0.0056
0.14998,79389.949,3.3925,0.15995,,0.0,0.51808,0.50881,,,,,0.51808,0.508813,0.0256278,4.59045,0.0056
0.14997,79989.948,3.4041,0.18494,,2.3716,0.60302,0.51051,,,,,0.60302,0.510554,0.0167819,5.77006,0.0056
0.14998,80589.95,3.4128,0.20993,,,0.6882,0.51185,,,,,0.6882,0.511869,0.0134191,6.08519,0.0056
0.14999,81189.948,3.4202,0.23492,,0.0,0.77359,0.513,,,,,0.77359,0.512994,0.0129085,6.41806,0.0056
0.14998,81789.948,3.4272,0.25991,0.0,,0.85916,0.51401,,,,,0.85916,0.514012,0.0115981,6.80736,0.0056
0.14998,82389.949,3.4336,0.2849,,3.8455,0.94489,0.51497,,,,,0.94489,0.515003,0.0110546,6.88358,0.0056
0.14999,82989.948,3.44,0.3099,,0.0,1.0308,0.51597,,,,,1.0308,0.515971,0.0114517,6.8674,0.0056
0.14998,83589.949,3.4466,0.33489,,0.0,1.1168,0.51692,,,,,1.1168,0.516943,0.0108637,6.69107,0.0056
0.14999,84189.949,3.4534,0.35988,0.268,3.665,1.2031,0.51798,,,,,1.2031,0.517967,0.0122656,6.5165,0.0056
0.14998,84789.949,3.4608,0.38487,0.0,,1.2895,0.51905,,,,,1.2895,0.519063,0.0125722,6.13529,0.0056
0.14998,85389.949,3.4689,0.40986,,3.0773,1.376,0.52027,,,,,1.376,0.520253,0.0152157,5.91861,0.0056
0.14999,85989.948,3.4779,0.43485,,0.0,1.4628,0.52165,3.4779,0.43485,2.66632,0.375193,1.4628,0.521613,0.0158645,5.66177,0.0056
0.14997,86589.95,3.4877,0.45984,0.0,0.0,1.5499,0.52305,,,,,1.5499,0.523075,0.0171966,5.5795,0.0056
0.14999,87189.949,3.498,0.48483,0.0,0.0,1.6372,0.52467,3.498,0.48483,2.40916,0.415213,1.6372,0.524635,0.0174046,5.38699,0.0056
0.14998,87789.948,3.5084,0.50983,,0.0,1.7247,0.52619,,,,,1.7247,0.526192,0.0176973,5.40493,0.0056
0.14999,88389.949,3.5188,0.53482,,2.3879,1.8125,0.52778,,,,,1.8125,0.527765,0.0181867,5.42101,0.0056
0.14998,88989.948,3.529,0.55981,,2.4582,1.9006,0.52928,,,,,1.9006,0.529265,0.0167257,5.49529,0.0056
0.14998,89589.948,3.5387,0.5848,,2.5663,1.9889,0.53073,,,,,1.9889,0.530739,0.0163666,5.64569,0.0056
0.14998,90189.948,3.5484,0.60979,,,2.0775,0.53219,,,,,2.0775,0.532179,0.0151843,5.66986,0.0056
0.14998,90789.949,3.5576,0.63478,,0.0,2.1663,0.53357,3.5576,0.63478,2.73509,0.365764,2.1663,0.533565,0.0158203,5.77815,0.0056
0.14998,91389.948,3.5664,0.65978,,,2.2553,0.53489,3.5664,0.65978,2.92443,0.341966,2.2553,0.534895,0.0141106,5.9768,0.0056
0.14998,91989.948,3.5747,0.68477,0.0,,2.3445,0.53613,,,,,2.3445,0.536127,0.0138893,6.1192,0.0056
0.14998,92589.947,3.5827,0.70976,0.0,,2.4339,0.53733,,,,,2.4339,0.53731,0.0123645,6.25157,0.0056
0.14998,93189.949,3.5902,0.73475,,0.0,2.5236,0.53846,3.5902,0.73475,3.40895,0.293578,2.5236,0.53845,0.0122677,6.50841,0.0056
0.14999,93789.95,3.5973,0.75974,0.0,,2.6134,0.53956,,,,,2.6134,0.539512,0.010469,6.67499,0.0056
0.14998,94389.95,3.6039,0.78473,,3.7844,2.7034,0.54051,,,,,2.7034,0.540514,0.0103583,6.86555,0.0056
0.14998,94989.948,3.61,0.80972,,0.0,2.7935,0.54143,3.61,0.80972,4.21692,0.237212,2.7935,0.541438,0.00962001,7.04012,0.0056
0.14998,95589.949,3.6159,0.83471,,0.0,2.8838,0.54231,,,,,2.8838,0.542324,0.00963203,7.2066,0.0056
0.14998,96189.948,3.6217,0.8597,,,2.9742,0.54318,,,,,2.9742,0.543194,0.00911028,7.33098,0.0056
0.14998,96789.948,3.6274,0.8847,,0.0,3.0648,0.54404,,,,,3.0648,0.544025,0.0088145,7.41334,0.0056
0.14998,97389.948,3.6329,0.90969,,,3.1555,0.54486,,,,,3.1555,0.544878,0.0092409,7.51354,0.0056
0.14998,97989.948,3.6383,0.93468,,0.0,3.2464,0.54567,,,,,3.2464,0.545686,0.00868179,7.57982,0.0056
0.14998,98589.948,3.6438,0.95967,,4.6198,3.3374,0.5465,,,,,3.3374,0.546499,0.00829884,7.62993,0.0056
0.14998,99189.948,3.6492,0.98466,,,3.4285,0.54731,,,,,3.4285,0.547321,0.00905999,7.61384,0.0056
0.14998,99789.95,3.6547,1.0097,,,3.5198,0.54813,,,,,3.5198,0.548136,0.009569,7.52163,0.0056
0.14998,100389.948,3.6601,1.0346,,0.0,3.6112,0.54894,,,,,3.6112,0.548972,0.0092321,7.42133,0.0056
0.14997,100989.948,3.666,1.0596,,,3.7028,0.54979,3.666,1.0596,4.38047,0.228571,3.7028,0.549822,0.00931957,7.33907,0.0056
0.14999,101589.949,3.6718,1.0846,,,3.7945,0.55073,,,,,3.7945,0.550687,0.0102516,7.25671,0.0056
0.14998,102189.948,3.6779,1.1096,,0.0,3.8863,0.55161,3.6779,1.1096,4.1068,0.24359,3.8863,0.551608,0.0105237,7.09831,0.0056
0.14998,102789.949,3.6842,1.1346,,3.9434,3.9783,0.55256,,,,,3.9783,0.552546,0.0099473,6.78328,0.0056
0.14998,103389.948,3.6908,1.1596,,,4.0705,0.55355,,,,,4.0705,0.553541,0.0102285,6.64088,0.0056
0.14998,103989.948,3.6977,1.1846,0.0,,4.1628,0.55458,,,,,4.1628,0.55456,0.0112578,6.50851,0.0056
0.14997,104589.948,3.7048,1.2096,0.0,,4.2553,0.55561,,,,,4.2553,0.555642,0.0115091,6.43414,0.0056
0.14998,105189.95,3.7123,1.2346,0.0,0.0,4.348,0.55677,,,,,4.348,0.556775,0.0134828,6.23549,0.0056
0.14998,105789.948,3.7202,1.2596,0.0,,4.4409,0.55796,,,,,4.4409,0.557946,0.0134967,6.09318,0.0056
0.14998,106389.948,3.7282,1.2846,0.0,,4.534,0.55916,,,,,4.534,0.559161,0.0137157,6.00097,0.0056
0.14999,106989.948,3.7365,1.3096,0.0,,4.6272,0.56044,,,,,4.6272,0.560421,0.0142681,5.95272,0.0056
0.14997,107589.949,3.745,1.3346,0.0,,4.7207,0.56164,,,,,4.7207,0.561673,0.0130065,5.93469,0.0056
0.14997,108189.949,3.7537,1.3596,0.34582,2.88,4.8145,0.56294,3.7537,1.3596,2.86935,0.349333,4.8145,0.562967,0.0137177,5.97865,0.0056
0.14999,108789.949,3.7623,1.3846,0.0,0.0,4.9084,0.56431,3.7623,1.3846,2.89747,0.345333,4.9084,0.564287,0.0144101,5.89453,0.0056
0.14997,109389.95,3.7709,1.4096,,0.0,5.0025,0.56552,,,,,5.0025,0.565554,0.0138183,5.85242,0.0056
0.14997,109989.949,3.7794,1.4346,,,5.0969,0.5668,,,,,5.0969,0.566861,0.0131058,5.96071,0.0056
0.14998,110589.949,3.7879,1.4595,,,5.1915,0.56811,,,,,5.1915,0.56814,0.0133259,5.9688,0.0056
0.14998,111189.949,3.7963,1.4845,,,5.2862,0.56937,,,,,5.2862,0.569377,0.0113693,6.027,0.0056
0.14999,111789.95,3.8045,1.5095,,,5.3812,0.57064,,,,,5.3812,0.570651,0.0114764,6.06901,0.0056
0.14998,112389.949,3.8128,1.5345,,,5.4764,0.57184,,,,,5.4764,0.571875,0.0128161,5.9768,0.0056
0.14999,112989.949,3.8211,1.5595,,0.0,5.5718,0.57313,,,,,5.5718,0.573118,0.0124781,5.94278,0.0056
0.14998,113589.948,3.8295,1.5845,,3.0125,5.6674,0.57435,,,,,5.6674,0.57433,0.0127976,6.00282,0.0056
0.14998,114189.948,3.8377,1.6095,,0.0,5.7632,0.57558,3.8377,1.6095,2.95684,0.338222,5.7632,0.575584,0.0124346,6.027,0.0056
0.14998,114789.948,3.846,1.6345,,0.0,5.8592,0.57682,3.846,1.6345,3.04878,0.328,5.8592,0.57683,0.0141121,6.01082,0.0056
0.14999,115389.949,3.8543,1.6595,,3.0197,5.9554,0.57811,3.8543,1.6595,3.00649,0.332667,5.9554,0.578069,0.0138159,5.9768,0.0056
0.14999,115989.949,3.8625,1.6845,,0.0,6.0519,0.57934,,,,,6.0519,0.579347,0.0132805,6.00282,0.0056
0.14999,116589.949,3.8709,1.7095,,0.0,6.1485,0.5806,,,,,6.1485,0.580605,0.0146294,6.01891,0.0056
0.14999,117189.949,3.8793,1.7345,,2.9649,6.2454,0.58186,,,,,6.2454,0.581863,0.0135136,6.00282,0.0056
0.14999,117789.95,3.8876,1.7595,,0.0,6.3424,0.5831,,,,,6.3424,0.583105,0.0124292,5.98489,0.0056
0.14998,118389.949,3.8959,1.7844,,0.0,6.4397,0.58431,,,,,6.4397,0.584335,0.013353,6.08509,0.0056
0.14998,118989.95,3.9037,1.8094,0.31824,3.2029,6.5372,0.58548,,,,,6.5372,0.585479,0.0116477,6.45831,0.0056
0.14998,119589.95,3.9109,1.8344,0.0,,6.6348,0.58656,,,,,6.6348,0.586588,0.0112271,6.70901,0.0056
0.14998,120189.948,3.9176,1.8594,0.0,,6.7327,0.58756,,,,,6.7327,0.587592,0.00916821,6.90766,0.0056
0.14999,120789.949,3.9239,1.8844,,4.097,6.8307,0.58855,,,,,6.8307,0.588497,0.00941338,7.02404,0.0056
0.14999,121389.951,3.9299,1.9094,,,6.9288,0.58945,3.9299,1.9094,4.16667,0.24,6.9288,0.589401,0.0091874,7.04198,0.0056
0.15,121989.949,3.9362,1.9344,0.0,,7.0271,0.59043,,,,,7.0271,0.590355,0.00841574,6.69107,0.0056
0.14999,122589.948,3.9428,1.9594,0.0,,7.1256,0.59138,,,,,7.1256,0.59135,0.0103232,6.49233,0.0056
0.14998,123189.948,3.9501,1.9844,,,7.2242,0.59244,3.9501,1.9844,3.37838,0.296,7.2242,0.592416,0.0107703,6.28383,0.0056
0.14999,123789.949,3.9578,2.0094,,,7.3231,0.59363,3.9578,2.0094,3.05241,0.328,7.3231,0.593608,0.0119048,6.14328,0.0056
0.14999,124389.949,3.9663,2.0344,,0.0,7.4221,0.59491,3.9663,2.0344,2.8795,0.347333,7.4221,0.594866,0.0128296,5.81031,0.0056
0.14998,124989.947,3.9754,2.0594,0.0,,7.5213,0.59623,,,,,7.5213,0.596228,0.0143418,5.6296,0.0056
0.14998,125589.948,3.9852,2.0844,0.0,,7.6208,0.5977,,,,,7.6208,0.597713,0.013999,5.52131,0.0056
0.14998,126189.948,3.9955,2.1094,0.0,,7.7206,0.59925,,,,,7.7206,0.59924,0.0156169,5.31272,0.0056
0.14998,126789.949,4.0061,2.1344,0.0,0.0,7.8206,0.60083,4.0061,2.1344,2.23502,0.447619,7.8206,0.600842,0.0162229,5.31272,0.0056
0.14999,127389.95,4.0169,2.1594,,0.0,7.9208,0.60249,,,,,7.9208,0.602462,0.0153947,5.34674,0.0056
0.15003,127989.948,4.0278,2.1844,0.0,,8.0214,0.60429,,,,,8.0214,0.604258,0.0156723,5.36282,0.0056
0.15001,128589.951,4.0384,2.2094,,0.0,8.1222,0.6058,4.0384,2.2094,2.336,0.428095,8.1222,0.605818,0.0149586,5.46312,0.0056
0.15003,129189.948,4.0484,2.2344,,0.0,8.2233,0.60738,,,,,8.2233,0.607391,0.014605,5.51946,0.0056
0.15001,129789.949,4.058,2.2594,,0.0,8.3246,0.60874,4.058,2.2594,2.66761,0.375,8.3246,0.608758,0.013487,5.61352,0.0056
0.15001,130389.948,4.0667,2.2844,0.0,,8.4262,0.61005,,,,,8.4262,0.610052,0.0123905,4.71853,0.0056
0.15002,130569.949,4.0692,2.2919,,3.0377,8.4567,0.61046,4.0692,2.2919,3.125,0.309333,8.4567,0.61045,0.0135918,4.71853,0.0056