File: Data/processed_data/folder_0072_cycle_0001_charge.csv
Current(A),Test_Time(s),Voltage(V),Charge_Capacity(Ah),dV/dQ(V/Ah),dQ/dV(Ah/V),Charge_Energy(Wh),Power(W),V_from_uniform_Q (V),Uniform_Q_grid (Ah),Q_from_uniform_V (Ah),Uniform_V_grid (V),V_from_uniform_t (V),Uniform_t_grid (h),P_from_uniform_E (W),Uniform_E_grid (Wh),Smoothed_V_from_Q (V),dV_dQ_interp_smooth (V/Ah),Smoothed_Q_from_V (Ah),dQ_dV_interp_smooth (Ah/v),Smoothed_P_from_E (W),dP_dE_interp_smooth (W/Wh)
0.14999,85811.507,3.4084,0.25248,0.0,,0.82622,0.51123,3.5049,0.544947,0.510032,3.49083,3.5049,25.7865,0.527278,1.92807,3.50478,0.445713,0.510204,2.58886,0.5273,0.0161396
0.14999,86831.5,3.4194,0.29498,,,0.97131,0.51288,3.5217,0.587442,0.540216,3.5028,3.5217,26.0699,0.529698,2.08817,3.52157,0.351803,0.54001,2.40849,0.529707,0.0151662
0.14998,87851.5,3.4301,0.33747,0.0,0.0,1.1169,0.51445,3.53659,0.629937,0.569147,3.51478,3.5366,26.3532,0.532358,2.24827,3.53661,0.381214,0.569115,2.5539,0.532383,0.0175132
0.14999,88871.5,3.4423,0.37997,0.28359,0.0,1.2629,0.51631,3.5539,0.672432,0.602622,3.52676,3.5539,26.6365,0.534794,2.40837,3.55381,0.398474,0.602415,2.91255,0.534785,0.0119647
0.14998,89891.5,3.4565,0.42247,0.0,0.0,1.4095,0.51841,3.5677,0.714927,0.635279,3.53873,3.5677,26.9199,0.5365,2.56847,3.56779,0.267628,0.6355,2.56826,0.536528,0.0107035
0.14999,90911.5,3.473,0.46496,0.39414,2.4983,1.5567,0.52092,3.5787,0.757422,0.664958,3.55071,3.5787,27.2032,0.538213,2.72856,3.57862,0.252993,0.664707,2.41161,0.538194,0.0100134
0.14999,91931.5,3.4899,0.50746,,0.0,1.7046,0.52345,3.5891,0.799917,0.696841,3.56268,3.5891,27.4865,0.539709,2.88866,3.58914,0.237391,0.697272,3.23648,0.539704,0.00889683
0.14998,92951.5,3.5069,0.54995,0.0,0.0,1.8533,0.52596,3.5986,0.842413,0.741942,3.57466,3.5986,27.7699,0.541095,3.04876,3.59869,0.214728,0.741661,3.97793,0.541088,0.00852419
0.14999,93971.5,3.5233,0.59245,,2.8124,2.0027,0.52846,3.6077,0.884908,0.790062,3.58664,3.6077,28.0532,0.542417,3.20886,3.60754,0.205658,0.789587,4.09356,0.542436,0.00828281
0.14998,94991.5,3.5386,0.63495,0.0,2.6797,2.1527,0.53072,3.6161,0.927403,0.842478,3.59861,3.6161,28.3365,0.543769,3.36896,3.61619,0.199697,0.842085,4.67444,0.543763,0.00828538
0.14998,96011.506,3.5558,0.67744,,,2.3035,0.5333,3.6246,0.969898,0.899857,3.61059,3.6246,28.6199,0.54506,3.52906,3.62471,0.19996,0.899785,4.9076,0.545072,0.00816525
0.14999,97031.5,3.5692,0.71994,,0.0,2.4549,0.53534,3.6332,1.01239,0.959353,3.62257,3.6332,28.9032,0.546387,3.68915,3.63311,0.197749,0.959229,5.00195,0.546402,0.00834734
0.14999,98051.5,3.5799,0.76243,0.0,,2.6068,0.53695,3.6415,1.05489,1.01961,3.63454,3.6415,29.1865,0.547741,3.84925,3.6416,0.199876,1.01953,5.04755,0.547722,0.00839374
0.15,99071.5,3.5903,0.80493,,0.0,2.7591,0.53855,3.6503,1.09738,1.07998,3.64652,3.6503,29.4699,0.549114,4.00935,3.65017,0.205673,1.07937,4.94383,0.54912,0.0088465
0.14999,100092,3.5998,0.84743,,,2.9119,0.53993,3.659,1.13988,1.13696,3.6585,3.659,29.7532,0.550532,4.16945,3.65901,0.211325,1.13738,4.71105,0.550558,0.00917706
0.14999,101112,3.6085,0.88992,0.0,,3.0651,0.54124,3.66819,1.18237,1.19226,3.67047,3.6682,30.0365,0.552118,4.32955,3.66827,0.224057,1.19223,4.42243,0.552093,0.00985974
0.14999,102132,3.6171,0.93242,,0.0,3.2186,0.54253,3.67819,1.22487,1.24302,3.68245,3.6782,30.3199,0.553734,4.48965,3.67805,0.238981,1.24303,4.07165,0.553735,0.0106624
0.14998,103152,3.6258,0.97491,0.0,,3.3725,0.5438,3.68849,1.26736,1.28999,3.69442,3.6885,30.6032,0.555542,4.64974,3.68856,0.256012,1.28985,3.75751,0.555509,0.0111282
0.14998,104172,3.6341,1.0174,,0.0,3.5268,0.54504,3.69999,1.30986,1.33348,3.7064,3.7,30.8865,0.557411,4.80984,3.69987,0.277203,1.33306,3.48237,0.557415,0.0123742
0.14999,105192,3.6427,1.0599,0.19882,,3.6814,0.54637,3.71209,1.35235,1.37327,3.71838,3.7121,31.1699,0.559408,4.96994,3.71205,0.297754,1.37331,3.2751,0.559412,0.0127143
0.14998,106212,3.6511,1.1024,,0.0,3.8364,0.54759,3.72498,1.39485,1.41132,3.73035,3.725,31.4532,0.561488,5.13004,3.72504,0.315015,1.41154,3.11349,0.561504,0.0131722
0.14999,107232,3.6601,1.1449,0.0,0.0,3.9917,0.54898,3.73878,1.43734,1.44812,3.74233,3.7388,31.7365,0.563617,5.29014,3.7387,0.327844,1.44832,3.028,0.563629,0.013241
0.14999,108252,3.6695,1.1874,0.0,0.0,4.1474,0.55039,3.75268,1.47984,1.48409,3.75431,3.7527,32.0199,0.565745,5.45024,3.7528,0.332616,1.48437,3.01303,0.565747,0.0133718
0.14999,109271.506,3.6792,1.2299,,0.0,4.3036,0.55184,3.76698,1.52233,1.52041,3.76628,3.767,32.3032,0.567868,5.61033,3.76694,0.334108,1.52033,3.00773,0.567854,0.0131111
0.14998,110291.506,3.6899,1.2724,,,4.4602,0.55341,3.78098,1.56483,1.55665,3.77826,3.781,32.5865,0.569947,5.77043,3.78105,0.330304,1.5564,3.01791,0.569956,0.0129566
0.14999,111312,3.7012,1.3149,,,4.6172,0.55514,3.79521,1.60732,1.59289,3.79024,3.7952,32.8699,0.572041,5.93053,3.7951,0.332264,1.59263,3.01639,0.572088,0.0138164
0.14998,112332,3.7135,1.3574,,3.4092,4.7747,0.55695,3.80941,1.64982,1.629,3.80221,3.8094,33.1532,0.574444,6.09063,3.80931,0.340739,1.62877,2.99737,0.574437,0.0160341
0.14998,113352,3.7268,1.3999,,0.0,4.9328,0.55895,3.82441,1.69232,1.66405,3.81419,3.8244,33.4365,0.577342,6.25073,3.82449,0.380475,1.66393,2.84713,0.577348,0.0199089
0.14998,114372,3.7403,1.4424,,,5.0915,0.56097,3.8427,1.73481,1.69654,3.82617,3.8427,33.7199,0.580224,6.41083,3.84266,0.48639,1.69668,2.59068,0.580208,0.0145059
0.14999,115392,3.7546,1.4849,0.0,0.0,5.2507,0.56315,3.8636,1.77731,1.7254,3.83814,3.8636,34.0032,0.582121,6.57092,3.86351,0.433669,1.72532,2.18534,0.582105,0.0100929
0.14997,116411.506,3.7686,1.5274,,2.9964,5.4106,0.56518,3.8782,1.8198,1.74964,3.85012,3.8782,34.2865,0.583658,6.73102,3.87812,0.2791,1.74973,1.95006,0.583629,0.00882898
0.14998,117432,3.7828,1.5699,0.33167,,5.571,0.56734,3.8891,1.8623,1.77365,3.86209,3.8891,34.5699,0.585001,6.89112,3.88898,0.239347,1.77387,2.23456,0.585013,0.00828994
0.14999,118452,3.7968,1.6123,,0.0,5.7321,0.56948,3.8986,1.90479,1.80611,3.87407,3.8986,34.8532,0.58627,7.05122,3.89869,0.218702,1.8061,3.21584,0.586286,0.00760977
0.14998,119472,3.811,1.6548,0.0,,5.8937,0.57157,3.9076,1.94729,1.85041,3.88605,3.9076,35.1365,0.587528,7.21132,3.90767,0.208095,1.85022,4.03414,0.587553,0.00777286
0.14998,120491.508,3.8265,1.6973,0.0,,6.056,0.5739,3.9165,1.98978,1.90182,3.89802,3.9165,35.4199,0.588836,7.37142,3.91636,0.204278,1.90182,4.54842,0.588872,0.00866161
0.14999,121512,3.8451,1.7398,0.0,,6.219,0.57673,3.9253,2.03228,1.95897,3.91,3.9253,35.7032,0.590364,7.53151,3.92542,0.222272,1.95855,4.85918,0.590311,0.00953303
0.14998,122532,3.8656,1.7823,,0.0,6.3828,0.57976,3.93549,2.07477,2.01653,3.92198,3.9355,35.9865,0.59194,7.69161,3.93542,0.251852,2.01654,4.64992,0.591968,0.0110545
0.14998,123552,3.8796,1.8248,,0.0,6.5474,0.58186,3.94679,2.11727,2.06919,3.93395,3.9468,36.2699,0.593833,7.85171,3.94692,0.287679,2.06884,4.0478,0.593852,0.0125913
0.14999,124572,3.8901,1.8673,0.0,,6.7125,0.58348,3.96028,2.15976,2.11367,3.94593,3.9603,36.5532,0.59599,8.01181,3.96014,0.333864,2.11385,3.50073,0.595971,0.0140524
0.14998,125592,3.8999,1.9098,,,6.878,0.58491,3.97509,2.20226,2.15294,3.95791,3.9751,36.8365,0.598328,8.17191,3.97515,0.371882,2.15296,3.04584,0.598323,0.0151616
0.14998,126612,3.9088,1.9523,0.0,,7.0439,0.58624,3.99178,2.24475,2.18759,3.96988,3.9918,37.1199,0.600784,8.33201,3.99179,0.407932,2.18789,2.78133,0.600788,0.0156474
0.14998,127632,3.9173,1.9948,,0.0,7.2102,0.58752,4.00957,2.28725,2.22013,3.98186,4.0096,37.4032,0.603304,8.4921,4.00946,0.42216,2.21985,2.57952,0.603307,0.0152146
0.14997,128651.508,3.9266,2.0373,,0.0,7.3769,0.58887,4.02708,2.32974,2.24964,3.99383,4.0271,37.6865,0.605692,8.6522,4.02715,0.406804,2.24975,2.44915,0.605686,0.0143199
0.14999,129672,3.9366,2.0798,0.0,,7.5439,0.59045,4.04377,2.37224,2.27859,4.00581,4.0438,37.9699,0.607908,8.8123,4.04382,0.37508,2.27856,2.36776,0.607893,0.0129467
0.14998,130692,3.9485,2.1223,0.0,3.5019,7.7115,0.5922,4.05898,2.41473,2.30727,4.01779,4.059,38.2532,0.60981,8.9724,4.05884,0.327653,2.30704,2.39317,0.609813,0.0111456
0.14998,131712,3.9618,2.1648,,0.0,7.8795,0.59419,4.07151,2.45723,2.33618,4.02976,4.0715,38.5365,0.61131,9.1325,4.0715,0.258146,2.33621,2.44894,0.611328,0.00780321
0.14997,132731.508,3.977,2.2073,0.0,0.0,8.0482,0.59643,4.0802,2.49972,2.36658,4.04174,4.0802,38.8199,0.612263,9.2926,4.0801,0.145989,2.36673,2.63633,0.61226,0.00398046
0.14998,133752,3.9939,2.2498,,2.4778,8.2176,0.59901,4.0846,2.54222,2.39934,4.05372,4.0846,39.1032,0.61277,9.45269,4.0847,0.0837616,2.39951,2.85842,0.612794,0.00277443
0.14998,134771.507,4.0115,2.2923,0.0,,8.3877,0.60164,4.0879,2.58471,2.43645,4.06569,4.0879,39.3865,0.613244,9.61279,4.08805,0.0762352,2.43645,3.33498,0.613243,0.00274108
0.14999,135792,4.0291,2.3348,0.0,,8.5585,0.60432,4.0914,2.62721,2.48499,4.07767,4.0914,39.6699,0.613707,9.77289,4.09132,0.0812925,2.48465,5.59957,0.613701,0.0030826
0.14998,136812,4.0458,2.3773,,0.0,8.7301,0.60679,4.0949,2.6697,2.60758,4.08965,4.0949,39.9532,0.614199,9.93299,,,,,,
0.14997,137832,4.0604,2.4198,,0.0,8.9023,0.60894,,,,,,,,,,,,,,
0.14997,138852,4.0729,2.4622,0.28463,0.0,9.0752,0.61081,,,,,,,,,,,,,,
0.14999,139872,4.0807,2.5047,,0.0,9.2484,0.61206,,,,,,,,,,,,,,
0.14999,140892,4.085,2.5472,,0.0,9.4219,0.61271,,,,,,,,,,,,,,
0.14999,141912,4.0885,2.5897,0.0,,9.5956,0.61323,,,,,,,,,,,,,,
0.14999,142932,4.0916,2.6322,,0.0,9.7694,0.6137,,,,,,,,,,,,,,
0.14998,143952,4.0955,2.6747,,0.0,9.9434,0.61424,,,,,,,,,,,,,,
,,,,,,,,3.4123,0.267478,0.268648,3.41263,3.4123,23.9365,0.511879,0.882725,,,,,,
,,,,,,,,3.4232,0.309973,0.314992,3.4246,3.4232,24.2199,0.513696,1.04282,3.4233,0.253508,0.315157,3.95455,0.513673,0.0111486
,,,,,,,,3.4345,0.352469,0.360844,3.43658,3.4345,24.5032,0.515533,1.20292,3.43434,0.274091,0.360476,3.53724,0.51553,0.0124071
,,,,,,,,3.4469,0.394964,0.39961,3.44856,3.4469,24.7865,0.517692,1.36302,3.44702,0.325808,0.399668,3.00221,0.517714,0.0150999
,,,,,,,,3.4621,0.437459,0.433301,3.46053,3.4621,25.0699,0.520345,1.52312,3.46218,0.38345,0.433118,2.63653,0.520336,0.0172252
,,,,,,,,3.4791,0.479954,0.463844,3.47251,3.4791,25.3532,0.523062,1.68322,3.47902,0.4003,0.46368,2.48371,0.523075,0.0167263
,,,,,,,,3.4957,0.522449,0.493563,3.48449,3.4957,25.6365,0.525812,1.84332,3.49566,0.395574,0.493701,2.54542,0.525798,0.0175183
,,,,,,,,3.50369,0.542447,0.508075,3.49012,3.5037,25.7699,0.527129,1.91866,3.50377,0.418464,0.508277,2.63412,0.527153,0.0185278