File: Data/monotonic_segments/Cycle 72_charge.csv
Current(A),Test_Time(s),Voltage(V),Charge_Capacity(Ah),dV/dQ(V/Ah),dQ/dV(Ah/V),Charge_Energy(Wh),Power(W)
0.14999,1043.66,4.2001,0.021738,0.0,0.0,0.091301,0.62997
0.14999,80531.5,3.0781,0.032498,4.7219,0.21959,0.09693,0.46168
0.14999,80891.5,3.1383,0.047497,3.744,0.27469,0.14356,0.47071
0.14999,81251.5,3.1871,0.062496,3.0976,0.32485,0.19101,0.47803
0.14999,81611.507,3.2285,0.077494,2.6628,0.385,0.23913,0.48424
0.14998,81971.5,3.2639,0.092493,2.2818,0.44076,0.28783,0.48952
0.14999,82331.5,3.2953,0.10749,2.0258,0.49791,0.33702,0.49426
0.14999,82691.5,3.3232,0.12249,1.7894,0.57189,0.38666,0.49845
0.14999,83051.5,3.3474,0.13749,,,0.43669,0.50208
0.14999,83411.5,3.3668,0.15249,,,0.48705,0.50499
0.14999,83771.5,3.3792,0.16749,,,0.53765,0.50685
0.14998,84131.5,3.3862,0.18249,,,0.58839,0.50786
0.14999,84491.507,3.3915,0.19748,,0.0,0.63922,0.50869
0.14999,84851.5,3.3966,0.21248,,0.0,0.69013,0.50946
0.14999,85211.506,3.4012,0.22748,,0.0,0.74111,0.51015
0.14998,85571.5,3.4056,0.24248,0.0,0.0,0.79216,0.51077
0.14998,85931.5,3.4096,0.25748,0.0,,0.84327,0.51137
0.14999,86291.5,3.4137,0.27248,0.0,,0.89444,0.51202
0.14999,86651.5,3.4176,0.28748,0.0,3.8443,0.94567,0.51261
0.14999,87011.5,3.4215,0.30248,0.0,,0.99696,0.51319
0.14999,87371.5,3.4253,0.31747,0.0,0.0,1.0483,0.51376
0.14998,87731.5,3.429,0.33247,0.0,0.0,1.0997,0.51428
0.14998,88091.5,3.4329,0.34747,,3.8227,1.1512,0.51487
0.14999,88451.5,3.4371,0.36247,,0.0,1.2027,0.51553
0.14999,88811.5,3.4416,0.37747,,,1.2543,0.51621
0.14998,89171.5,3.4463,0.39247,,0.0,1.3059,0.51688
0.14999,89531.509,3.4511,0.40747,,0.0,1.3577,0.51763
0.14998,89891.5,3.4565,0.42247,0.0,0.0,1.4095,0.51841
0.14998,90251.5,3.4621,0.43746,0.0,0.0,1.4613,0.51925
0.14999,90611.5,3.468,0.45246,,2.561,1.5133,0.52017
0.15,90971.5,3.4741,0.46746,,,1.5654,0.52112
0.14998,91331.5,3.4801,0.48246,,0.0,1.6175,0.52195
0.14999,91691.5,3.486,0.49746,,,1.6698,0.52287
0.14998,92051.5,3.4917,0.51246,,0.0,1.7221,0.52369
0.14999,92411.5,3.4976,0.52746,,2.5492,1.7745,0.52461
0.14998,92771.5,3.5037,0.54246,,,1.827,0.52548
0.14998,93131.5,3.5102,0.55745,,0.0,1.8796,0.52646
0.14998,93491.5,3.5162,0.57245,,,1.9323,0.52736
0.14997,93851.5,3.5217,0.58745,,0.0,1.9851,0.52815
0.14999,94211.5,3.5267,0.60245,,0.0,2.0379,0.52897
0.14999,94571.5,3.5319,0.61745,,0.0,2.0909,0.52975
0.14999,94931.5,3.5374,0.63245,,,2.1439,0.53057
0.14999,95291.5,3.5436,0.64745,,2.5238,2.197,0.5315
0.14998,95651.506,3.5497,0.66244,,,2.2502,0.53238
0.14998,96011.506,3.5558,0.67744,,,2.3035,0.5333
0.14999,96371.5,3.5611,0.69244,,,2.3569,0.53413
0.14999,96731.5,3.5657,0.70744,0.0,0.0,2.4103,0.53482
0.14998,97091.5,3.5698,0.72244,0.0,,2.4638,0.5354
0.14998,97451.508,3.5736,0.73744,0.0,,2.5174,0.53597
0.14998,97811.5,3.5773,0.75244,0.0,,2.571,0.53652
0.14999,98171.507,3.581,0.76743,,,2.6247,0.53711
0.14998,98531.508,3.5849,0.78243,0.0,,2.6784,0.53766
0.14999,98891.5,3.5886,0.79743,0.0,,2.7322,0.53825
0.14999,99251.5,3.5921,0.81243,0.0,,2.7861,0.53878
0.14999,99611.508,3.5954,0.82743,,0.0,2.84,0.53927
0.14999,99971.5,3.5986,0.84243,,,2.8939,0.53975
0.14998,100332,3.6019,0.85742,,,2.9479,0.54021
0.14998,100692,3.6051,0.87242,,0.0,3.002,0.54069
0.14999,101052,3.608,0.88742,,4.8228,3.0561,0.54116
0.14998,101412,3.6111,0.90242,,0.0,3.1102,0.54159
0.14998,101772,3.6141,0.91742,,0.0,3.1644,0.54204
0.14999,102132,3.6171,0.93242,,0.0,3.2186,0.54253
0.14998,102492,3.6203,0.94742,,0.0,3.2729,0.54297
0.14999,102852,3.6233,0.96241,,4.9711,3.3272,0.54346
0.14999,103212,3.6262,0.97741,,0.0,3.3816,0.54389
0.14998,103572,3.6291,0.99241,,0.0,3.436,0.54429
0.14997,103932,3.6321,1.0074,,0.0,3.4904,0.54471
0.14998,104292,3.6352,1.0224,,0.0,3.5449,0.54521
0.14998,104652,3.6381,1.0374,,5.0178,3.5995,0.54564
0.14998,105012,3.641,1.0524,,0.0,3.6541,0.54608
0.14998,105371.507,3.644,1.0674,,0.0,3.7087,0.54653
0.14998,105732,3.6471,1.0824,,0.0,3.7634,0.54699
0.14998,106092,3.6503,1.0974,,0.0,3.8181,0.54747
0.14997,106452,3.6533,1.1124,,4.888,3.8729,0.54789
0.14998,106812,3.6563,1.1274,,0.0,3.9277,0.54837
0.14999,107172,3.6595,1.1424,,,3.9826,0.54889
0.14999,107532,3.6628,1.1574,0.21066,4.6777,4.0375,0.54938
0.14999,107892,3.6661,1.1724,0.0,,4.0924,0.54988
0.14999,108252,3.6695,1.1874,0.0,0.0,4.1474,0.55039
0.14999,108612,3.6729,1.2024,0.22207,4.4388,4.2025,0.5509
0.14999,108972,3.6762,1.2174,0.0,0.0,4.2576,0.55139
0.14998,109332,3.6798,1.2324,0.0,,4.3128,0.5519
0.14999,109692,3.6834,1.2474,,,4.368,0.55247
0.14997,110052,3.6874,1.2624,,,4.4233,0.553
0.14999,110412,3.6912,1.2774,,,4.4786,0.55364
0.14999,110772,3.6951,1.2924,0.0,,4.534,0.55423
0.14999,111132,3.6992,1.3074,0.0,0.0,4.5894,0.55484
0.14999,111492,3.7035,1.3224,,3.626,4.645,0.55549
0.14998,111852,3.7077,1.3374,,0.0,4.7005,0.55608
0.14998,112212,3.7121,1.3524,,,4.7562,0.55674
0.14999,112572,3.7165,1.3674,,0.0,4.8119,0.55744
0.14999,112932,3.7211,1.3824,,0.0,4.8677,0.55813
0.14999,113292,3.7259,1.3974,0.0,,4.9235,0.55885
0.14998,113652,3.7307,1.4124,0.0,,4.9794,0.55953
0.14998,114012,3.7354,1.4274,,,5.0354,0.56024
0.14998,114372,3.7403,1.4424,,,5.0915,0.56097
0.14998,114732,3.7453,1.4574,,,5.1476,0.56172
0.14999,115092,3.7504,1.4724,,0.0,5.2038,0.56252
0.14999,115451.506,3.7554,1.4874,,,5.2601,0.56327
0.14998,115811.506,3.7602,1.5024,,0.0,5.3165,0.56395
0.14998,116172,3.7652,1.5174,,0.0,5.3729,0.5647
0.14998,116532,3.7703,1.5324,,0.0,5.4294,0.56547
0.14999,116891.507,3.7754,1.5474,,0.0,5.486,0.56627
0.14998,117252,3.7803,1.5624,,0.0,5.5427,0.56697
0.14998,117612,3.7851,1.5774,,0.0,5.5994,0.56769
0.14999,117972,3.79,1.5923,,0.0,5.6562,0.56846
0.14998,118332,3.7952,1.6073,,0.0,5.7131,0.5692
0.14998,118692,3.8001,1.6223,,0.0,5.77,0.56994
0.14998,119052,3.8052,1.6373,,0.0,5.8271,0.5707
0.14997,119412,3.8101,1.6523,,0.0,5.8842,0.5714
0.14998,119772,3.8153,1.6673,,0.0,5.9414,0.57222
0.14999,120132,3.8207,1.6823,,,5.9986,0.57307
0.14998,120491.508,3.8265,1.6973,0.0,,6.056,0.5739
0.14998,120852,3.8325,1.7123,0.39314,0.0,6.1134,0.5748
0.14998,121212,3.8389,1.7273,0.0,2.2917,6.1709,0.57576
0.14999,121572,3.8462,1.7423,,0.0,6.2286,0.57689
0.14999,121932,3.854,1.7573,,1.9436,6.2863,0.57806
0.14998,122292,3.8615,1.7723,,0.0,6.3442,0.57915
0.14998,122652,3.8677,1.7873,,0.0,6.4021,0.58008
0.14999,123012,3.8728,1.8023,0.38045,,6.4602,0.58088
0.14999,123372,3.8774,1.8173,0.0,,6.5183,0.58157
0.14999,123732,3.8815,1.8323,0.0,,6.5765,0.58219
0.14998,124092,3.8854,1.8473,0.0,,6.6347,0.58273
0.14999,124452,3.8891,1.8623,0.0,,6.6931,0.58333
0.14997,124812,3.8925,1.8773,0.24424,,6.7514,0.58376
0.14999,125171.507,3.8959,1.8923,0.0,,6.8098,0.58435
0.14999,125532,3.8993,1.9073,0.0,0.0,6.8683,0.58486
0.14998,125892,3.9026,1.9223,0.22101,0.0,6.9268,0.58531
0.15,126251.507,3.9057,1.9373,0.0,,6.9853,0.58586
0.14998,126612,3.9088,1.9523,0.0,,7.0439,0.58624
0.14998,126972,3.9117,1.9673,0.0,,7.1026,0.58668
0.14999,127332,3.9148,1.9823,0.0,,7.1613,0.58718
0.14998,127692,3.9178,1.9973,0.0,,7.22,0.58759
0.14998,128052,3.9212,2.0123,0.0,,7.2788,0.5881
0.14999,128412,3.9244,2.0273,,0.0,7.3376,0.58862
0.14999,128772,3.9277,2.0423,,0.0,7.3965,0.58912
0.14997,129132,3.931,2.0573,,,7.4554,0.58953
0.14998,129492,3.9348,2.0723,,,7.5144,0.59014
0.14998,129852,3.9388,2.0873,,,7.5735,0.59074
0.14998,130212,3.9427,2.1023,0.25741,0.0,7.6326,0.59133
0.14998,130572,3.9468,2.1173,0.0,,7.6917,0.59194
0.14998,130932,3.9513,2.1323,0.0,0.0,7.751,0.59262
0.14998,131292,3.9562,2.1473,0.0,,7.8103,0.59335
0.14998,131652,3.9611,2.1623,0.0,,7.8696,0.59409
0.14998,132012,3.966,2.1773,0.0,,7.9291,0.59482
0.14998,132372,3.9714,2.1923,0.0,,7.9886,0.59563
0.14997,132731.508,3.977,2.2073,0.0,0.0,8.0482,0.59643
0.14999,133092,3.9829,2.2223,0.37877,0.0,8.1079,0.5974
0.14998,133452,3.9888,2.2373,0.0,2.5232,8.1677,0.59824
0.14999,133812,3.995,2.2523,0.0,,8.2276,0.59921
0.14998,134171.508,4.001,2.2673,0.0,0.0,8.2875,0.60007
0.14998,134532,4.0073,2.2823,0.0,0.0,8.3476,0.60101
0.14999,134892,4.0138,2.2973,,2.3888,8.4077,0.60203
0.14999,135252,4.0201,2.3123,,,8.468,0.60297
0.14998,135612,4.0262,2.3273,,,8.5283,0.60385
0.14998,135972,4.0323,2.3423,,0.0,8.5887,0.60476
0.14999,136332,4.038,2.3573,,2.5423,8.6493,0.60566
0.14998,136692,4.0438,2.3723,,2.6088,8.7099,0.60649
0.14998,137052,4.0493,2.3873,,,8.7706,0.60731
0.14998,137412,4.0548,2.4023,0.0,,8.8313,0.60814
0.14999,137771.506,4.0597,2.4173,0.0,,8.8922,0.60891
0.14998,138132,4.0643,2.4323,0.0,,8.9531,0.60956
0.14998,138492,4.0688,2.4472,0.0,,9.0141,0.61024
0.14997,138852,4.0729,2.4622,0.28463,0.0,9.0752,0.61081
0.14997,139211.508,4.0762,2.4772,0.0,,9.1363,0.61131
0.14998,139572,4.0789,2.4922,0.0,,9.1974,0.61175
0.14998,139932,4.0811,2.5072,0.0,,9.2586,0.61208
0.14999,140292,4.0829,2.5222,,,9.3198,0.61239
0.14998,140651.506,4.0844,2.5372,,0.0,9.3811,0.61258
0.14998,140712,4.0846,2.5397,0.0,,9.3913,0.61261