File: Data/monotonic_segments/Cycle 970_discharge.csv
Current(A),Test_Time(s),Voltage(V),Discharge_Capacity(Ah),dV/dQ(V/Ah),dQ/dV(Ah/V),Discharge_Energy(Wh),Power(W)
-0.15001,11311.219,4.0701,0.26495,,,1.0846,-0.61056
-0.15,11671.219,4.0687,0.27995,,,1.1456,-0.61031
-0.15001,12031.218,4.0669,0.29494,,,1.2066,-0.61008
-0.15,12391.219,4.065,0.30994,,,1.2676,-0.60975
-0.15002,12751.219,4.0628,0.32494,0.10665,7.6008,1.3285,-0.6095
-0.15001,13111.218,4.0602,0.33994,0.0,0.0,1.3894,-0.60907
-0.15001,13471.218,4.0571,0.35493,0.0,,1.4503,-0.60861
-0.15001,13831.218,4.0536,0.36993,0.0,,1.5111,-0.60808
-0.15001,14191.218,4.0496,0.38493,,,1.5719,-0.60748
-0.15001,14551.219,4.0457,0.39992,,,1.6326,-0.6069
-0.15001,14911.218,4.0415,0.41492,0.0,,1.6932,-0.60627
-0.15,15271.219,4.0372,0.42992,0.0,,1.7538,-0.60558
-0.15001,15631.218,4.0326,0.44491,0.29723,3.2964,1.8143,-0.60493
-0.15,15991.218,4.0277,0.45991,0.0,3.1957,1.8747,-0.60416
-0.15001,16351.219,4.0228,0.4749,0.3188,0.0,1.9351,-0.60346
-0.15001,16711.219,4.0179,0.4899,0.0,2.9567,1.9954,-0.60273
-0.15001,17071.218,4.0128,0.5049,0.34215,2.8991,2.0556,-0.60196
-0.15001,17431.218,4.0074,0.51989,0.0,2.7417,2.1157,-0.60115
-0.15001,17791.219,4.0019,0.53489,,,2.1758,-0.60033
-0.15,18151.218,3.9963,0.54988,,,2.2358,-0.59945
-0.15,18511.219,3.9907,0.56488,0.0,0.0,2.2957,-0.59861
-0.15,18871.218,3.9851,0.57988,0.0,0.0,2.3555,-0.59777
-0.15001,19231.218,3.9796,0.59488,,,2.4152,-0.59698
-0.15001,19591.218,3.9741,0.60987,,0.0,2.4748,-0.59615
-0.14999,19951.219,3.9684,0.62487,0.0,0.0,2.5344,-0.59522
-0.15001,20311.219,3.963,0.63987,0.0,,2.5939,-0.59449
-0.15,20671.218,3.9577,0.65486,,2.7886,2.6532,-0.59366
-0.15001,21031.218,3.9526,0.66986,0.34985,2.9237,2.7126,-0.59293
-0.15001,21391.218,3.9475,0.68486,0.0,2.9919,2.7718,-0.59216
-0.15001,21751.219,3.9427,0.69985,0.33462,3.034,2.831,-0.59144
-0.15,22111.219,3.938,0.71485,0.0,0.0,2.8901,-0.5907
-0.15001,22471.218,3.9332,0.72985,0.0,,2.9491,-0.59002
-0.15,22831.22,3.9287,0.74485,,,3.008,-0.58931
-0.15001,23191.219,3.9244,0.75985,,0.0,3.0669,-0.5887
-0.15001,23551.219,3.9204,0.77484,,,3.1258,-0.5881
-0.15,23911.217,3.9164,0.78984,,0.0,3.1845,-0.58746
-0.15001,24271.218,3.9122,0.80484,0.26908,3.8254,3.2432,-0.58687
-0.15001,24631.219,3.9084,0.81984,0.0,0.0,3.3019,-0.5863
-0.15,24991.218,3.9048,0.83484,0.0,0.0,3.3605,-0.58572
-0.15002,25351.218,3.9009,0.84984,,0.0,3.419,-0.58521
-0.15,25711.219,3.897,0.86483,,,3.4775,-0.58455
-0.15,26071.219,3.8927,0.87983,0.26471,,3.5359,-0.58391
-0.15001,26431.219,3.8884,0.89483,0.0,,3.5943,-0.5833
-0.15001,26791.219,3.8839,0.90983,0.0,,3.6525,-0.58262
-0.15001,27151.218,3.8792,0.92483,0.0,0.0,3.7108,-0.58192
-0.15002,27511.219,3.874,0.93983,0.0,0.0,3.7689,-0.58118
-0.15001,27871.22,3.8688,0.95482,0.0,0.0,3.827,-0.58036
-0.15001,28231.219,3.8631,0.96982,0.0,0.0,3.885,-0.5795
-0.15001,28591.219,3.8575,0.98482,,2.6854,3.9429,-0.57866
-0.15,28951.219,3.8521,0.99982,0.37247,2.6927,4.0007,-0.57782
-0.15001,29311.219,3.8465,1.0148,0.0,,4.0584,-0.57701
-0.15001,29671.218,3.841,1.0298,0.0,,4.1161,-0.57619
-0.15001,30031.218,3.8356,1.0448,,0.0,4.1736,-0.57538
-0.15001,30391.218,3.8305,1.0598,0.0,0.0,4.2311,-0.57461
-0.15001,30751.219,3.8251,1.0748,0.0,0.0,4.2885,-0.5738
-0.15002,31111.219,3.82,1.0898,,0.0,4.3459,-0.57308
-0.15001,31471.219,3.815,1.1048,,,4.4031,-0.57229
-0.15,31831.219,3.8098,1.1198,,,4.4603,-0.57147
-0.15001,32191.219,3.8047,1.1348,,,4.5174,-0.57074
-0.15001,32551.218,3.7997,1.1498,,,4.5744,-0.56999
-0.15001,32911.219,3.7948,1.1648,,,4.6314,-0.56926
-0.15002,33271.218,3.7899,1.1798,,,4.6883,-0.56856
-0.15,33631.219,3.7849,1.1948,,,4.7451,-0.56774
-0.15001,33991.217,3.7798,1.2098,,,4.8018,-0.56701
-0.15,34351.219,3.7749,1.2248,,,4.8585,-0.56624
-0.15001,34711.219,3.77,1.2398,,,4.915,-0.56554
-0.15001,35071.219,3.7651,1.2548,,0.0,4.9715,-0.5648
-0.15001,35431.219,3.7601,1.2698,,0.0,5.028,-0.56405
-0.15,35791.219,3.755,1.2848,,0.0,5.0843,-0.56325
-0.15,36151.218,3.7498,1.2998,,,5.1406,-0.56247
-0.15,36511.218,3.7448,1.3148,,,5.1968,-0.56172
-0.15,36871.219,3.7396,1.3298,,,5.2529,-0.56094
-0.15001,37231.218,3.7346,1.3448,,,5.309,-0.56023
-0.15,37591.218,3.7295,1.3598,,,5.365,-0.55943
-0.15001,37951.218,3.7242,1.3748,,,5.4209,-0.55867
-0.15001,38311.218,3.719,1.3898,0.0,,5.4767,-0.55789
-0.15001,38671.219,3.7139,1.4048,0.0,0.0,5.5324,-0.55712
-0.15001,39031.218,3.709,1.4198,0.0,0.0,5.5881,-0.55639
-0.15,39391.218,3.704,1.4348,0.0,0.0,5.6437,-0.5556
-0.15,39751.218,3.699,1.4498,0.0,0.0,5.6992,-0.55485
-0.15001,40111.219,3.6941,1.4648,0.0,0.0,5.7546,-0.55415
-0.15,40471.218,3.6894,1.4798,0.0,,5.81,-0.55341
-0.15,40831.218,3.6848,1.4948,0.0,,5.8653,-0.55272
-0.15001,41191.218,3.6804,1.5098,,0.0,5.9205,-0.5521
-0.15001,41551.218,3.6761,1.5248,,,5.9757,-0.55145
-0.15001,41911.219,3.6718,1.5398,,,6.0308,-0.55081
-0.15001,42271.218,3.6674,1.5548,,,6.0858,-0.55015
-0.15,42631.218,3.6633,1.5698,,,6.1408,-0.5495
-0.15001,42991.218,3.6594,1.5848,0.0,0.0,6.1957,-0.54895
-0.15001,43351.218,3.6556,1.5998,0.0,0.0,6.2506,-0.54838
-0.15001,43711.218,3.6517,1.6148,,,6.3054,-0.54779
-0.15,44071.218,3.6479,1.6298,,,6.3601,-0.54719
-0.14999,44431.219,3.6442,1.6448,,0.0,6.4148,-0.54659
-0.15,44791.218,3.6406,1.6598,,0.0,6.4695,-0.54609
-0.15,45151.219,3.637,1.6748,,4.1486,6.524,-0.54555
-0.15001,45511.218,3.6336,1.6897,,0.0,6.5786,-0.54508
-0.15,45871.219,3.6301,1.7047,0.0,,6.633,-0.54452
-0.15,46231.219,3.6265,1.7197,0.0,,6.6874,-0.54398
-0.15001,46591.218,3.6228,1.7347,0.0,,6.7418,-0.54346
-0.15,46951.218,3.6193,1.7497,,,6.7961,-0.5429
-0.15002,47311.218,3.6157,1.7647,,0.0,6.8504,-0.54243
-0.15001,47671.218,3.6119,1.7797,,3.9833,6.9046,-0.54182
-0.15001,48031.218,3.608,1.7947,,0.0,6.9587,-0.54124
-0.15001,48391.219,3.6043,1.8097,,0.0,7.0128,-0.54068
-0.15001,48751.221,3.6005,1.8247,,0.0,7.0668,-0.54011
-0.15,49111.218,3.5968,1.8397,,3.9324,7.1208,-0.53952
-0.15001,49471.218,3.593,1.8547,,0.0,7.1747,-0.53899
-0.15,49831.219,3.5888,1.8697,,0.0,7.2286,-0.53832
-0.15,50191.218,3.5848,1.8847,,,7.2824,-0.53772
-0.15001,50551.218,3.5809,1.8997,0.0,,7.3361,-0.53717
-0.15,50911.219,3.5769,1.9147,0.0,3.7166,7.3898,-0.53654
-0.15001,51271.218,3.5727,1.9297,0.0,0.0,7.4434,-0.53594
-0.15,51631.221,3.5684,1.9447,,,7.497,-0.53526
-0.15,51991.218,3.5641,1.9597,,0.0,7.5504,-0.53462
-0.15001,52351.218,3.5598,1.9747,,,7.6039,-0.53401
-0.15001,52711.218,3.5554,1.9897,,0.0,7.6572,-0.53335
-0.15,53071.218,3.5507,2.0047,0.0,,7.7105,-0.53261
-0.15,53431.218,3.546,2.0197,0.0,,7.7637,-0.5319
-0.15001,53791.219,3.5413,2.0347,,3.2221,7.8169,-0.53123
-0.15001,54151.218,3.5367,2.0497,,3.1687,7.87,-0.53054
-0.15002,54511.218,3.532,2.0647,0.31656,3.1447,7.923,-0.52987
-0.15,54871.218,3.5269,2.0797,0.0,3.0815,7.9759,-0.52904
-0.15002,55231.218,3.522,2.0947,0.32586,3.0572,8.0288,-0.52837
-0.15,55591.218,3.5171,2.1097,0.0,2.9762,8.0816,-0.52757
-0.15001,55951.218,3.5121,2.1247,0.33621,2.9373,8.1343,-0.52685
-0.15001,56311.22,3.5068,2.1397,0.0,2.8833,8.1869,-0.52606
-0.15,56671.219,3.5015,2.1547,,2.8082,8.2395,-0.52523
-0.15001,57031.221,3.496,2.1697,,,8.2919,-0.52443
-0.15001,57391.219,3.4904,2.1847,0.0,,8.3443,-0.52359
-0.15001,57751.219,3.4846,2.1997,0.0,0.0,8.3966,-0.52272
-0.15001,58111.219,3.4789,2.2147,,,8.4489,-0.52187
-0.15001,58471.218,3.4732,2.2297,,0.0,8.501,-0.52101
-0.15,58831.219,3.4672,2.2447,,0.0,8.553,-0.52008
-0.15001,59191.219,3.4611,2.2597,,,8.605,-0.5192
-0.15002,59551.219,3.4549,2.2747,,0.0,8.6569,-0.5183
-0.15001,59911.218,3.4489,2.2897,,,8.7086,-0.51737
-0.15001,60271.22,3.4433,2.3047,,,8.7603,-0.51653
-0.15,60631.217,3.438,2.3197,,0.0,8.8119,-0.5157
-0.15001,60991.22,3.4328,2.3347,,,8.8634,-0.51495
-0.15001,61351.218,3.4279,2.3497,,,8.9149,-0.51422
-0.15,61711.218,3.4231,2.3647,,0.0,8.9663,-0.51347
-0.15,62071.219,3.4188,2.3797,,0.0,9.0176,-0.51282
-0.14999,62431.22,3.4142,2.3947,,,9.0688,-0.5121
-0.15002,62791.218,3.4095,2.4097,,,9.12,-0.51149
-0.15001,63151.219,3.4045,2.4247,,0.0,9.1711,-0.51071
-0.15,63511.22,3.3996,2.4397,,0.0,9.2221,-0.50994
-0.15,63871.218,3.3943,2.4547,,,9.273,-0.50915
-0.15001,64231.22,3.3885,2.4697,0.0,,9.3239,-0.50831
-0.15002,64591.218,3.382,2.4847,0.41346,2.2954,9.3747,-0.50737
-0.15001,64951.22,3.3746,2.4996,0.0,,9.4254,-0.50622
-0.15,65311.218,3.3664,2.5146,0.0,1.751,9.4759,-0.50496
-0.15001,65671.219,3.3565,2.5296,,1.4811,9.5263,-0.50351
-0.15,66031.218,3.345,2.5446,,1.2801,9.5766,-0.50175
-0.15,66391.219,3.3313,2.5596,0.91712,1.042,9.6267,-0.4997
-0.15,66751.22,3.3151,2.5746,0.0,0.8931,9.6765,-0.49727
-0.15001,67111.218,3.2961,2.5896,,0.73708,9.7261,-0.49445
-0.15001,67471.218,3.274,2.6046,0.0,0.64815,9.7754,-0.49113
-0.15001,67831.219,3.2471,2.6196,,0.53967,9.8243,-0.4871
-0.15,68191.218,3.2156,2.6346,,0.44824,9.8727,-0.48234
-0.15001,68551.22,3.1795,2.6496,2.5055,0.39653,9.9207,-0.47696
-0.15001,68911.218,3.138,2.6646,2.8717,0.34295,9.9681,-0.47073
-0.15,69271.22,3.0896,2.6796,3.3972,0.29026,10.015,-0.46344
-0.15001,69631.219,3.0322,2.6946,4.0964,0.24218,10.061,-0.45486
-0.15,69991.219,2.9619,2.7096,5.1538,0.19326,10.106,-0.44429
-0.15001,70351.219,2.871,2.7246,7.0234,0.1398,10.149,-0.43068
-0.15001,70711.217,2.7182,2.7396,13.025,0.076449,10.191,-0.40776
-0.15001,71071.219,2.5089,2.7546,14.125,0.071293,10.231,-0.37636
-0.14998,71086.394,2.5,2.7552,13.949,0.071232,10.232,-0.37495