File: Data/monotonic_segments/Cycle 72_discharge.csv
Current(A),Test_Time(s),Voltage(V),Discharge_Capacity(Ah),dV/dQ(V/Ah),dQ/dV(Ah/V),Discharge_Energy(Wh),Power(W)
-0.15002,14544,4.0704,0.41255,,,1.692,-0.61064
-0.15001,14904,4.0691,0.42755,,,1.7531,-0.61041
-0.15002,15264,4.0677,0.44255,0.0,,1.8141,-0.61024
-0.15001,15624,4.066,0.45755,0.0,,1.8751,-0.60994
-0.15001,15984,4.0636,0.47255,0.0,,1.9361,-0.60958
-0.15001,16344,4.0607,0.48756,,,1.997,-0.60915
-0.15001,16704,4.0575,0.50256,,,2.0579,-0.60867
-0.15001,17063.974,4.0536,0.51756,,,2.1188,-0.60808
-0.15001,17424,4.0494,0.53256,,0.0,2.1795,-0.60745
-0.15002,17784,4.0446,0.54756,,0.0,2.2402,-0.60677
-0.15002,18144,4.0396,0.56256,0.0,,2.3009,-0.60602
-0.15002,18503.974,4.0343,0.57756,0.0,0.0,2.3614,-0.60523
-0.15002,18864,4.0291,0.59257,0.0,0.0,2.4219,-0.60445
-0.15002,19224,4.0236,0.60757,0.0,0.0,2.4823,-0.60362
-0.15002,19584,4.0176,0.62257,,,2.5426,-0.60272
-0.15002,19944,4.0115,0.63757,,0.0,2.6029,-0.60181
-0.15001,20304,4.0055,0.65257,,2.494,2.663,-0.60087
-0.15001,20664,3.9993,0.66757,0.0,,2.723,-0.59993
-0.15001,21024,3.9927,0.68258,0.0,0.0,2.783,-0.59894
-0.15002,21384,3.9865,0.69758,0.0,0.0,2.8428,-0.59805
-0.15001,21744,3.9803,0.71258,,2.4048,2.9026,-0.59708
-0.15001,22103.975,3.9743,0.72758,0.0,,2.9623,-0.59618
-0.15002,22464,3.9683,0.74258,,0.0,3.0218,-0.59532
-0.15001,22824,3.9623,0.75758,0.0,,3.0813,-0.59438
-0.15002,23184,3.9566,0.77258,0.0,0.0,3.1407,-0.59357
-0.15002,23544,3.9512,0.78759,0.0,,3.2,-0.59276
-0.15002,23904,3.946,0.80259,,,3.2593,-0.59198
-0.15001,24264,3.9413,0.81759,,,3.3184,-0.59123
-0.15001,24624,3.9364,0.83259,,,3.3775,-0.5905
-0.15002,24984,3.9318,0.84759,,,3.4365,-0.58985
-0.15002,25343.973,3.9273,0.86259,,0.0,3.4955,-0.58917
-0.15001,25704,3.9234,0.8776,,,3.5544,-0.58855
-0.15002,26064,3.9194,0.8926,0.0,0.0,3.6132,-0.58799
-0.15001,26424,3.9155,0.9076,0.0,4.0339,3.672,-0.58736
-0.15002,26783.973,3.9118,0.9226,0.0,0.0,3.7307,-0.58685
-0.15002,27144,3.9083,0.9376,0.0,0.0,3.7893,-0.58632
-0.15001,27504,3.905,0.9526,0.0,,3.8479,-0.58579
-0.15001,27864,3.9016,0.9676,0.0,,3.9065,-0.58528
-0.15002,28224,3.8982,0.9826,,0.0,3.965,-0.58481
-0.15,28584,3.8947,0.99761,,0.0,4.0234,-0.58421
-0.15001,28944,3.8913,1.0126,,0.0,4.0818,-0.58373
-0.15002,29303.974,3.888,1.0276,,0.0,4.1402,-0.58328
-0.15001,29664,3.8845,1.0426,,,4.1985,-0.58271
-0.15001,30024,3.8806,1.0576,0.23993,,4.2567,-0.58213
-0.15001,30384,3.8768,1.0726,0.0,,4.3149,-0.58156
-0.15001,30744,3.873,1.0876,0.0,,4.3731,-0.58099
-0.15001,31104,3.8688,1.1026,,0.0,4.4311,-0.58036
-0.15,31463.973,3.8642,1.1176,,,4.4891,-0.57963
-0.15001,31824,3.8595,1.1326,,,4.5471,-0.57896
-0.15002,32184,3.8545,1.1476,,,4.6049,-0.57825
-0.15001,32544,3.849,1.1626,0.0,,4.6627,-0.57739
-0.15001,32904,3.8431,1.1776,0.0,0.0,4.7204,-0.5765
-0.15002,33263.973,3.8365,1.1926,0.0,,4.778,-0.57555
-0.15,33624,3.8293,1.2076,,,4.8355,-0.5744
-0.15001,33984,3.8216,1.2226,,0.0,4.8929,-0.57328
-0.15002,34344,3.8141,1.2376,,,4.9502,-0.57219
-0.15001,34704,3.8071,1.2526,,0.0,5.0073,-0.5711
-0.15001,35064,3.8006,1.2676,0.44969,0.0,5.0644,-0.57013
-0.15001,35423.973,3.7945,1.2826,0.0,2.5059,5.1214,-0.56921
-0.15001,35783.974,3.789,1.2976,0.0,,5.1782,-0.56839
-0.15002,36144,3.7839,1.3126,0.0,,5.235,-0.56766
-0.15001,36504,3.7791,1.3276,0.0,,5.2918,-0.5669
-0.15002,36864,3.7742,1.3426,0.0,,5.3484,-0.56621
-0.15002,37224,3.7693,1.3576,0.0,,5.405,-0.56547
-0.15,37584,3.7646,1.3726,0.0,3.1822,5.4615,-0.56469
-0.15001,37944,3.7599,1.3876,,3.1801,5.5179,-0.56402
-0.15002,38304,3.7551,1.4026,,3.2019,5.5743,-0.56334
-0.15001,38664,3.7506,1.4176,0.31499,0.0,5.6306,-0.56263
-0.15001,39024,3.7458,1.4326,0.0,,5.6868,-0.56191
-0.15002,39384,3.7409,1.4476,0.31902,,5.743,-0.56121
-0.15002,39744,3.736,1.4626,,,5.7991,-0.56047
-0.15001,40103.973,3.7313,1.4776,,,5.8551,-0.55973
-0.15001,40464,3.7265,1.4926,,0.0,5.911,-0.55901
-0.15002,40824,3.7217,1.5076,,0.0,5.9669,-0.55833
-0.15001,41184,3.7167,1.5227,,0.0,6.0227,-0.55754
-0.15001,41544,3.7119,1.5377,,0.0,6.0784,-0.55682
-0.15002,41904,3.7072,1.5527,0.0,,6.134,-0.55615
-0.15001,42264,3.7026,1.5677,0.0,,6.1896,-0.55543
-0.15002,42624,3.6981,1.5827,,,6.2451,-0.55479
-0.15001,42984,3.6936,1.5977,,0.0,6.3006,-0.55408
-0.15002,43344,3.689,1.6127,0.0,,6.356,-0.55342
-0.15001,43704,3.6846,1.6277,0.0,3.4662,6.4113,-0.55273
-0.15001,44064,3.6806,1.6427,0.28675,0.0,6.4665,-0.55213
-0.15001,44424,3.6765,1.6577,0.0,,6.5217,-0.55151
-0.15,44784,3.6723,1.6727,0.0,0.0,6.5768,-0.55085
-0.15,45144,3.6684,1.6877,,0.0,6.6319,-0.55026
-0.15001,45504,3.6646,1.7027,,,6.6869,-0.54973
-0.15002,45864,3.6611,1.7177,,,6.7418,-0.54924
-0.15002,46224,3.6574,1.7327,,0.0,6.7967,-0.54868
-0.15002,46584,3.6539,1.7477,,0.0,6.8515,-0.54816
-0.15002,46943.973,3.6503,1.7627,0.23699,0.0,6.9063,-0.54762
-0.15001,47304,3.647,1.7777,0.0,,6.9611,-0.54709
-0.15002,47663.973,3.6438,1.7927,0.0,0.0,7.0158,-0.54664
-0.15001,48024,3.6405,1.8077,0.22264,0.0,7.0704,-0.54611
-0.15001,48384,3.6372,1.8227,0.0,,7.125,-0.54562
-0.15001,48744,3.634,1.8377,0.0,0.0,7.1795,-0.54514
-0.15002,49103.974,3.6309,1.8527,0.0,0.0,7.234,-0.54471
-0.15002,49464,3.6278,1.8677,,0.0,7.2885,-0.54424
-0.15002,49824,3.6248,1.8827,,,7.3429,-0.54379
-0.15002,50184,3.6217,1.8977,,0.0,7.3972,-0.54333
-0.15001,50544,3.6186,1.9127,0.0,,7.4515,-0.54283
-0.15001,50903.974,3.6155,1.9277,0.0,,7.5058,-0.54236
-0.15002,51264,3.6125,1.9427,0.0,,7.56,-0.54195
-0.15001,51624,3.6095,1.9577,0.0,,7.6142,-0.54146
-0.15002,51984,3.6064,1.9727,0.0,,7.6683,-0.54103
-0.15001,52344,3.6033,1.9877,0.0,,7.7224,-0.54053
-0.15003,52703.973,3.6001,2.0027,,4.7719,7.7764,-0.54012
-0.15003,53063.974,3.5968,2.0177,,0.0,7.8304,-0.53963
-0.15001,53424,3.5935,2.0327,,0.0,7.8843,-0.53906
-0.15001,53784,3.5904,2.0477,0.2151,0.0,7.9382,-0.5386
-0.15004,54144,3.5869,2.0627,0.0,,7.992,-0.53818
-0.15002,54504,3.5833,2.0777,0.0,,8.0458,-0.53757
-0.15001,54863.974,3.5797,2.0927,,4.1896,8.0996,-0.53699
-0.15002,55224,3.5761,2.1077,,0.0,8.1532,-0.53649
-0.15,55583.973,3.5723,2.1227,,0.0,8.2069,-0.53585
-0.15002,55944,3.5685,2.1377,,0.0,8.2604,-0.53535
-0.15002,56304,3.5646,2.1527,,3.9633,8.3139,-0.53476
-0.15003,56664,3.5605,2.1677,0.25865,0.0,8.3674,-0.53418
-0.15001,57024,3.5565,2.1827,0.0,,8.4208,-0.53351
-0.15001,57384,3.5525,2.1977,0.0,,8.4741,-0.53291
-0.15002,57743.973,3.5483,2.2127,,0.0,8.5273,-0.53232
-0.15002,58104,3.5437,2.2277,,,8.5805,-0.53163
-0.15003,58464,3.5391,2.2427,0.0,,8.6337,-0.53097
-0.15002,58823.975,3.5344,2.2577,0.0,3.1616,8.6867,-0.53023
-0.15002,59184,3.5296,2.2727,,3.1353,8.7397,-0.52951
-0.15003,59544,3.5247,2.2877,,3.0266,8.7926,-0.52881
-0.15002,59904,3.5198,2.3027,,3.0055,8.8455,-0.52804
-0.15002,60264,3.5147,2.3177,,3.0549,8.8982,-0.52728
-0.15001,60624,3.5099,2.3327,0.32274,3.0983,8.9509,-0.52652
-0.15002,60984,3.5054,2.3477,0.0,0.0,9.0035,-0.52588
-0.15002,61344,3.5008,2.3627,0.31198,,9.0561,-0.52519
-0.15002,61704,3.4961,2.3777,0.0,,9.1086,-0.52448
-0.15002,62064,3.491,2.3927,0.0,0.0,9.161,-0.52372
-0.15002,62424,3.4859,2.4077,,0.0,9.2133,-0.52295
-0.15002,62784,3.4805,2.4227,0.35915,,9.2656,-0.52214
-0.15003,63144,3.4746,2.4377,0.0,2.5147,9.3177,-0.52129
-0.15002,63504,3.4682,2.4528,0.0,,9.3698,-0.5203
-0.15002,63864,3.4617,2.4678,0.0,,9.4218,-0.51932
-0.15002,64224,3.4557,2.4828,0.0,0.0,9.4737,-0.51842
-0.15002,64584,3.4498,2.4978,,2.5005,9.5255,-0.51754
-0.15002,64943.973,3.4435,2.5128,0.0,,9.5772,-0.51659
-0.15002,65304,3.4367,2.5278,,0.0,9.6288,-0.51557
-0.15002,65664,3.4302,2.5428,0.43655,0.0,9.6803,-0.5146
-0.15002,66024,3.4245,2.5578,0.0,2.5862,9.7317,-0.51374
-0.15002,66384,3.4199,2.5728,,3.1207,9.7831,-0.51305
-0.15001,66744,3.416,2.5878,,0.0,9.8343,-0.51243
-0.15002,67104,3.4123,2.6028,,0.0,9.8855,-0.51191
-0.15002,67463.975,3.4089,2.6178,,,9.9367,-0.5114
-0.15002,67823.973,3.4056,2.6328,,,9.9878,-0.51091
-0.15002,68184,3.402,2.6478,,,10.039,-0.51037
-0.15002,68544,3.398,2.6628,0.0,0.0,10.09,-0.50977
-0.15002,68904,3.394,2.6778,,,10.141,-0.50917
-0.15001,69264,3.3897,2.6928,,3.4424,10.192,-0.50849
-0.15001,69624,3.385,2.7078,,0.0,10.243,-0.50778
-0.15002,69984,3.38,2.7228,0.32252,2.9253,10.293,-0.50707
-0.15002,70344,3.3744,2.7378,0.0,2.6939,10.344,-0.50623
-0.15002,70704,3.368,2.7528,0.0,,10.395,-0.50527
-0.15002,71064,3.3611,2.7678,0.0,,10.445,-0.50423
-0.15001,71424,3.353,2.7828,,,10.495,-0.50298
-0.15001,71784,3.3433,2.7978,0.0,1.5347,10.546,-0.50153
-0.15002,72144,3.3305,2.8128,0.88828,,10.596,-0.49964
-0.15002,72504,3.3121,2.8278,0.0,0.75634,10.645,-0.49688
-0.15002,72864,3.2868,2.8428,1.7505,0.56164,10.695,-0.49309
-0.15001,73224,3.257,2.8578,2.0297,0.47937,10.744,-0.48858
-0.15002,73584,3.2234,2.8728,,0.42846,10.793,-0.48357
-0.15003,73944,3.1853,2.8878,2.6118,0.37814,10.841,-0.47789
-0.15002,74304,3.1419,2.9028,,0.32798,10.888,-0.47135
-0.15002,74664,3.0909,2.9178,,0.27459,10.935,-0.4637
-0.15002,75024,3.0294,2.9328,4.4817,0.22459,10.981,-0.45447
-0.15002,75384,2.9507,2.9478,5.7764,0.16887,11.026,-0.44266
-0.15002,75744,2.8361,2.9628,9.8995,0.099371,11.069,-0.42547
-0.15003,76103.973,2.5393,2.9778,20.717,0.048942,11.11,-0.38097
-0.14987,76151.4,2.5011,2.9798,19.612,0.051096,11.115,-0.37484