File: Data/monotonic_segments/Cycle 295_charge.csv
Current(A),Test_Time(s),Voltage(V),Charge_Capacity(Ah),dV/dQ(V/Ah),dQ/dV(Ah/V),Charge_Energy(Wh),Power(W)
0.14996,1129.154,4.1999,0.03634,0.0,0.0,0.15262,0.62982
0.15,79421.451,3.1431,0.0475,3.7377,0.27107,0.14374,0.47147
0.14998,79781.452,3.1925,0.0625,3.0891,0.32705,0.19126,0.47881
0.14999,80141.452,3.234,0.0775,2.6523,0.381,0.23947,0.48507
0.14999,80501.454,3.2698,0.0925,,0.43415,0.28825,0.49044
0.14999,80861.453,3.3013,0.10749,2.0187,0.49257,0.33753,0.49516
0.14999,81221.452,3.3291,0.12249,,0.56264,0.38726,0.49933
0.14999,81581.452,3.3532,0.13749,1.5645,0.65189,0.43738,0.50295
0.15,81941.454,3.3719,0.15249,1.1726,0.93236,0.48782,0.50579
0.15,82301.453,3.3832,0.16749,,,0.53849,0.50748
0.14998,82661.452,3.3908,0.18249,0.53443,,0.5893,0.50855
0.14999,83021.451,3.397,0.19749,0.0,2.5161,0.6402,0.50952
0.15,83381.453,3.4022,0.21249,,2.8427,0.69119,0.51033
0.14998,83741.451,3.4068,0.22749,,3.1847,0.74226,0.51095
0.14999,84101.452,3.4112,0.24249,0.30805,0.0,0.79339,0.51165
0.14998,84461.451,3.4153,0.25748,0.0,,0.84458,0.51223
0.15,84821.453,3.4194,0.27248,0.0,0.0,0.89584,0.51291
0.14998,85181.452,3.4233,0.28748,,0.0,0.94716,0.51343
0.14999,85541.452,3.4272,0.30248,,3.9115,0.99853,0.51405
0.14999,85901.452,3.4308,0.31748,0.25375,0.0,1.05,0.51459
0.14998,86261.452,3.4346,0.33248,0.0,0.0,1.1014,0.51512
0.14998,86621.452,3.4386,0.34748,0.0,0.0,1.153,0.51572
0.14999,86981.451,3.4428,0.36248,0.0,,1.2046,0.51639
0.14999,87341.453,3.447,0.37747,0.0,3.5269,1.2563,0.51702
0.15,87701.453,3.4514,0.39247,0.28923,0.0,1.308,0.51771
0.14997,88061.452,3.4562,0.40747,0.0,,1.3598,0.51833
0.14999,88421.454,3.4614,0.42247,0.32935,,1.4117,0.51918
0.14999,88781.451,3.4668,0.43747,0.0,2.7318,1.4636,0.51999
0.14999,89141.453,3.4728,0.45247,,,1.5157,0.52089
0.14998,89501.451,3.4787,0.46747,,,1.5678,0.52174
0.14998,89861.451,3.4846,0.48246,,0.0,1.62,0.52262
0.14999,90221.452,3.4907,0.49746,,,1.6723,0.52357
0.15,90581.453,3.4969,0.51246,,2.4533,1.7247,0.52454
0.14998,90941.452,3.5031,0.52746,0.0,,1.7772,0.52539
0.14999,91301.452,3.509,0.54246,0.0,0.0,1.8298,0.52631
0.14999,91661.454,3.515,0.55746,0.0,,1.8825,0.52721
0.14998,92021.452,3.5211,0.57246,0.40116,0.0,1.9353,0.52809
0.14999,92381.453,3.5271,0.58745,0.0,2.5303,1.9881,0.52903
0.14999,92741.452,3.5329,0.60245,0.0,,2.0411,0.5299
0.14998,93101.452,3.5385,0.61745,,,2.0941,0.5307
0.14999,93461.451,3.544,0.63245,,0.0,2.1472,0.53156
0.14998,93821.452,3.5497,0.64745,,,2.2004,0.53238
0.14998,94181.454,3.5552,0.66245,0.0,,2.2537,0.53321
0.15,94541.452,3.5606,0.67745,0.0,0.0,2.3071,0.53409
0.14999,94901.453,3.5657,0.69245,,0.0,2.3605,0.53482
0.14998,95261.452,3.5706,0.70744,,0.0,2.414,0.53552
0.14999,95621.451,3.5753,0.72244,,0.0,2.4676,0.53626
0.14999,95981.453,3.5798,0.73744,,0.0,2.5213,0.53693
0.14998,96341.452,3.5839,0.75244,0.0,,2.575,0.53751
0.14998,96701.452,3.5877,0.76744,0.0,,2.6288,0.53808
0.14999,97061.452,3.5914,0.78244,0.26033,,2.6826,0.53867
0.14999,97421.453,3.5951,0.79744,0.0,,2.7365,0.53923
0.15,97781.451,3.5988,0.81243,0.0,,2.7905,0.53982
0.14998,98141.452,3.6025,0.82743,0.0,4.1879,2.8445,0.5403
0.14999,98501.452,3.6058,0.84243,0.0,0.0,2.8985,0.54083
0.14999,98861.452,3.6091,0.85743,0.0,0.0,2.9526,0.54133
0.14998,99221.452,3.6126,0.87243,,,3.0068,0.54182
0.14999,99581.452,3.6159,0.88743,,,3.061,0.54235
0.14999,99941.451,3.6189,0.90243,0.0,,3.1153,0.5428
0.14999,100301.454,3.622,0.91743,0.0,4.7548,3.1696,0.54326
0.14999,100661.452,3.6252,0.93243,0.0,0.0,3.2239,0.54374
0.14998,101021.453,3.6284,0.94742,0.0,0.0,3.2783,0.54419
0.14999,101381.453,3.6315,0.96242,0.20641,0.0,3.3328,0.54469
0.15,101741.452,3.6346,0.97742,0.0,,3.3872,0.54519
0.14999,102101.451,3.6375,0.99242,0.0,,3.4418,0.54559
0.14999,102461.452,3.6406,1.0074,0.0,,3.4964,0.54605
0.15,102821.451,3.6437,1.0224,,,3.551,0.54656
0.14999,103181.452,3.6469,1.0374,,,3.6057,0.547
0.15,103541.453,3.6498,1.0524,,,3.6604,0.54747
0.14999,103901.453,3.653,1.0674,0.0,0.0,3.7152,0.54791
0.14999,104261.452,3.6562,1.0824,0.0,0.0,3.77,0.54839
0.14999,104621.452,3.6595,1.0974,0.0,0.0,3.8248,0.54889
0.14999,104981.453,3.6629,1.1124,,,3.8797,0.5494
0.14999,105341.453,3.6662,1.1274,,,3.9347,0.54989
0.14999,105701.454,3.6695,1.1424,,0.0,3.9897,0.55039
0.14999,106061.451,3.673,1.1574,,,4.0448,0.55091
0.14998,106421.453,3.6767,1.1724,,,4.0999,0.55143
0.14998,106781.451,3.6804,1.1874,,,4.1551,0.55199
0.14999,107141.452,3.6839,1.2024,0.0,,4.2103,0.55255
0.14999,107501.452,3.6877,1.2174,0.0,,4.2656,0.55312
0.15,107861.451,3.6918,1.2324,,,4.3209,0.55377
0.14999,108221.453,3.6958,1.2474,,,4.3763,0.55433
0.14998,108581.454,3.7,1.2624,,0.0,4.4318,0.55493
0.15,108941.453,3.7044,1.2774,0.0,,4.4873,0.55566
0.14999,109301.452,3.7086,1.2924,0.0,0.0,4.5429,0.55625
0.15,109661.452,3.7131,1.3074,0.0,,4.5986,0.55697
0.14999,110021.454,3.7177,1.3224,0.0,,4.6543,0.55762
0.14999,110381.454,3.7226,1.3374,,3.1891,4.7101,0.55835
0.14999,110741.452,3.7274,1.3524,,3.105,4.766,0.55907
0.14999,111101.451,3.7323,1.3674,,3.0876,4.8219,0.55981
0.14999,111461.454,3.7371,1.3824,,3.0092,4.8779,0.56053
0.14999,111821.451,3.7421,1.3974,,2.9936,4.934,0.56128
0.14999,112181.452,3.7471,1.4124,,2.9743,4.9902,0.56203
0.14999,112541.453,3.7524,1.4274,,2.967,5.0464,0.56282
0.14999,112901.451,3.7575,1.4424,,2.9443,5.1027,0.56359
0.14999,113261.452,3.7625,1.4574,,2.9418,5.1591,0.56434
0.14998,113621.452,3.7675,1.4724,,2.9575,5.2156,0.56505
0.15,113981.452,3.7726,1.4874,,2.9629,5.2722,0.56589
0.15,114341.453,3.7777,1.5024,,2.9859,5.3288,0.56666
0.15,114701.453,3.7827,1.5174,,2.9868,5.3855,0.56741
0.15,115061.452,3.7875,1.5324,,3.0262,5.4423,0.56813
0.14999,115421.452,3.7925,1.5474,,3.0084,5.4991,0.56884
0.14999,115781.452,3.7976,1.5624,,3.0248,5.556,0.5696
0.14998,116141.453,3.8026,1.5774,,3.029,5.613,0.57031
0.14998,116501.451,3.8074,1.5924,,3.0115,5.6701,0.57103
0.14997,116861.451,3.8124,1.6074,,2.9996,5.7272,0.57175
0.14998,117221.452,3.8176,1.6224,,2.9693,5.7844,0.57256
0.14997,117581.452,3.8228,1.6374,,2.9012,5.8417,0.57331
0.14999,117941.452,3.8279,1.6524,,,5.8991,0.57415
0.14999,118301.452,3.8331,1.6674,0.0,,5.9566,0.57493
0.14998,118661.451,3.8387,1.6824,0.0,,6.0141,0.57573
0.14998,119021.452,3.8442,1.6974,,0.0,6.0717,0.57655
0.14999,119381.451,3.8501,1.7124,,,6.1294,0.57748
0.14998,119741.452,3.8559,1.7274,0.0,,6.1872,0.57831
0.15,120101.452,3.8618,1.7424,0.39127,0.0,6.2451,0.57927
0.14999,120461.452,3.8677,1.7574,0.0,2.5429,6.3031,0.58012
0.14999,120821.452,3.8735,1.7724,0.0,,6.3611,0.58099
0.14998,121181.454,3.8791,1.7874,0.0,0.0,6.4193,0.58179
0.14999,121541.453,3.8844,1.8024,,0.0,6.4775,0.58262
0.14999,121901.451,3.8895,1.8174,,0.0,6.5358,0.58339
0.14998,122261.452,3.8939,1.8324,,0.0,6.5942,0.58401
0.14998,122621.451,3.8978,1.8474,,,6.6526,0.58459
0.14999,122981.453,3.9016,1.8624,,,6.7111,0.5852
0.15,123341.451,3.9052,1.8774,,,6.7696,0.58578
0.14999,123701.452,3.9086,1.8924,0.0,0.0,6.8282,0.58625
0.15,124061.453,3.9118,1.9073,,0.0,6.8869,0.58677
0.15,124421.452,3.9151,1.9223,,,6.9456,0.58727
0.14999,124781.453,3.918,1.9373,,,7.0043,0.58766
0.14998,125141.452,3.9211,1.9523,0.21141,,7.0631,0.58809
0.15,125501.452,3.9243,1.9673,0.0,0.0,7.1219,0.58865
0.15,125861.452,3.9279,1.9823,0.0,,7.1808,0.58919
0.14999,126221.453,3.9313,1.9973,0.22116,,7.2398,0.58966
0.14999,126581.451,3.9347,2.0123,0.0,0.0,7.2988,0.59017
0.15,126941.452,3.9385,2.0273,0.0,0.0,7.3578,0.59078
0.14999,127301.453,3.9427,2.0423,0.0,3.8032,7.4169,0.59137
0.14999,127661.454,3.9469,2.0573,0.0,0.0,7.4761,0.592
0.14999,128021.453,3.9512,2.0723,0.28648,,7.5353,0.59264
0.14998,128381.453,3.9558,2.0873,0.0,0.0,7.5946,0.59329
0.14999,128741.452,3.9608,2.1023,0.0,0.0,7.654,0.59408
0.14999,129101.451,3.9661,2.1173,,0.0,7.7134,0.59488
0.14999,129461.451,3.9714,2.1323,0.35001,0.0,7.7729,0.59567
0.14998,129821.452,3.9769,2.1473,0.0,,7.8326,0.59646
0.14998,130181.452,3.9827,2.1623,,2.5668,7.8922,0.59733
0.14999,130541.453,3.9889,2.1773,,,7.952,0.5983
0.14998,130901.453,3.9951,2.1923,,0.0,8.0119,0.59919
0.14999,131261.452,4.0013,2.2073,0.41742,,8.0719,0.60015
0.14999,131621.451,4.0076,2.2223,0.0,2.3404,8.1319,0.6011
0.14999,131981.452,4.0141,2.2373,0.0,,8.1921,0.60207
0.14999,132341.451,4.0207,2.2523,0.0,,8.2523,0.60306
0.14999,132701.452,4.0271,2.2673,,0.0,8.3127,0.60402
0.15,133061.452,4.0331,2.2823,,2.4098,8.3731,0.60497
0.14998,133421.453,4.0391,2.2973,,,8.4337,0.60578
0.14999,133781.452,4.0452,2.3123,0.0,0.0,8.4943,0.60674
0.14998,134141.452,4.0508,2.3273,0.0,,8.555,0.60754
0.14999,134501.452,4.0563,2.3423,,0.0,8.6158,0.6084
0.14999,134861.453,4.0613,2.3573,0.3538,0.0,8.6767,0.60915
0.15,135221.454,4.0661,2.3723,0.0,0.0,8.7376,0.60992
0.14999,135581.454,4.0706,2.3873,0.0,0.0,8.7987,0.61055
0.14999,135941.453,4.0746,2.4023,,,8.8598,0.61115
0.14999,136301.452,4.0777,2.4173,,,8.9209,0.61161
0.14999,136661.452,4.0803,2.4323,,0.0,8.9821,0.612
0.14999,137021.451,4.0823,2.4473,,6.4358,9.0433,0.6123
0.14997,137141.453,4.083,2.4523,,0.0,9.0637,0.61233