File: Data/monotonic_segments/Cycle 970_charge.csv
Current(A),Test_Time(s),Voltage(V),Charge_Capacity(Ah),dV/dQ(V/Ah),dQ/dV(Ah/V),Charge_Energy(Wh),Power(W)
0.15,1350.906,4.2001,0.06462,0.0,0.0,0.27207,0.63002
0.14997,76426.488,3.2708,0.07247,2.5068,0.4039,0.22819,0.49052
0.14997,76726.487,3.2991,0.08496,2.2127,0.45717,0.26924,0.49477
0.14998,77026.487,3.3244,0.09746,,0.51229,0.31062,0.49859
0.14997,77326.486,3.347,0.10995,1.7632,0.57706,0.3523,0.50195
0.14998,77626.487,3.3668,0.12244,1.5512,0.65688,0.39424,0.50495
0.14998,77926.487,3.3832,0.13494,0.0,0.8037,0.43642,0.50741
0.14998,78226.486,3.3948,0.14743,0.0,,0.47877,0.50915
0.14997,78526.487,3.4025,0.15993,0.0,,0.52124,0.51027
0.14998,78826.488,3.4082,0.17242,0.0,,0.56379,0.51116
0.14998,79126.488,3.4129,0.18492,,,0.6064,0.51187
0.14998,79426.487,3.417,0.19741,,,0.64907,0.51248
0.14999,79726.487,3.4207,0.20991,0.0,,0.69179,0.51307
0.14998,80026.488,3.4243,0.2224,,0.0,0.73456,0.51358
0.14998,80326.487,3.4278,0.2349,0.0,0.0,0.77736,0.5141
0.14997,80626.487,3.4311,0.24739,,,0.82021,0.51456
0.14998,80926.488,3.4344,0.25989,0.0,0.0,0.8631,0.51509
0.14998,81226.486,3.4375,0.27238,0.0,,0.90603,0.51556
0.14998,81526.487,3.4407,0.28487,,0.0,0.949,0.51604
0.14998,81826.487,3.4438,0.29737,0.0,,0.99201,0.5165
0.14997,82126.487,3.447,0.30986,,,1.0351,0.51695
0.14997,82426.487,3.4503,0.32236,0.0,0.0,1.0782,0.51744
0.14998,82726.486,3.4536,0.33486,,,1.1213,0.51797
0.14999,83026.487,3.457,0.34735,,3.6996,1.1645,0.51852
0.14998,83326.488,3.4605,0.35984,0.0,,1.2077,0.51901
0.14998,83626.487,3.4643,0.37234,,,1.2509,0.51958
0.14997,83926.487,3.4682,0.38483,0.0,0.0,1.2942,0.52013
0.14998,84226.489,3.472,0.39733,,,1.3376,0.52073
0.14997,84526.487,3.4763,0.40982,0.32922,2.9511,1.381,0.52134
0.14998,84826.488,3.4808,0.42232,,,1.4245,0.52205
0.14998,85126.488,3.4855,0.43482,0.0,0.0,1.468,0.52276
0.14997,85426.487,3.4904,0.44731,0.0,0.0,1.5116,0.52346
0.14997,85726.487,3.4953,0.45981,,0.0,1.5552,0.52419
0.14998,86026.488,3.5004,0.47231,0.0,0.0,1.599,0.52499
0.14998,86326.489,3.5057,0.4848,,0.0,1.6427,0.52578
0.14998,86626.489,3.5109,0.4973,0.0,0.0,1.6866,0.52656
0.14998,86926.487,3.5161,0.50979,0.41677,0.0,1.7305,0.52734
0.14998,87226.488,3.5213,0.52229,,0.0,1.7744,0.52812
0.14998,87526.488,3.5265,0.53479,0.41261,2.4431,1.8185,0.5289
0.14997,87826.489,3.5315,0.54728,,2.4656,1.8626,0.52962
0.14997,88126.487,3.5365,0.55978,0.4032,2.487,1.9067,0.53037
0.14997,88426.488,3.5415,0.57228,,2.4968,1.951,0.53112
0.14998,88726.489,3.5465,0.58477,0.39687,2.5404,1.9952,0.5319
0.14997,89026.488,3.5513,0.59727,,,2.0396,0.53259
0.14997,89326.487,3.5562,0.60977,0.38836,0.0,2.084,0.53332
0.14997,89626.487,3.5609,0.62226,,0.0,2.1285,0.53403
0.14997,89926.488,3.5655,0.63476,0.0,0.0,2.173,0.53472
0.14998,90226.488,3.5699,0.64726,0.0,,2.2176,0.53541
0.14999,90526.488,3.5743,0.65975,,,2.2622,0.53611
0.14998,90826.488,3.5785,0.67225,0.0,0.0,2.3069,0.5367
0.14998,91126.487,3.5826,0.68475,,,2.3517,0.53732
0.14997,91426.487,3.5866,0.69724,0.32837,3.1109,2.3964,0.53788
0.14997,91726.488,3.5905,0.70974,,,2.4413,0.53847
0.14998,92026.487,3.5943,0.72223,0.0,,2.4862,0.53907
0.14997,92326.487,3.598,0.73473,0.0,0.0,2.5311,0.53959
0.14998,92626.487,3.6015,0.74723,,3.5162,2.5761,0.54015
0.14997,92926.486,3.6049,0.75972,0.0,,2.6211,0.54063
0.14997,93226.488,3.6083,0.77222,,0.0,2.6662,0.54114
0.14998,93526.487,3.6115,0.78472,0.0,3.8486,2.7113,0.54165
0.14997,93826.487,3.6146,0.79721,,,2.7565,0.54208
0.14998,94126.487,3.6176,0.80971,0.0,,2.8016,0.54257
0.14997,94426.487,3.6206,0.8222,,0.0,2.8469,0.54298
0.14997,94726.487,3.6236,0.8347,0.0,,2.8921,0.54343
0.14998,95026.486,3.6265,0.8472,0.23631,4.2801,2.9374,0.5439
0.14998,95326.487,3.6292,0.85969,,0.0,2.9828,0.54431
0.14998,95626.488,3.6321,0.87219,0.0,,3.0281,0.54474
0.14997,95926.489,3.6349,0.88469,,0.0,3.0735,0.54513
0.14999,96226.488,3.6376,0.89718,,0.0,3.119,0.5456
0.14997,96526.487,3.6404,0.90968,0.0,,3.1644,0.54595
0.14997,96826.487,3.6432,0.92218,,,3.21,0.54637
0.14998,97126.487,3.6459,0.93467,0.22311,0.0,3.2555,0.54681
0.14997,97426.488,3.6488,0.94717,,0.0,3.3011,0.54721
0.14998,97726.487,3.6515,0.95967,0.0,4.5263,3.3467,0.54765
0.14997,98026.487,3.6543,0.97216,,,3.3924,0.54804
0.14998,98326.487,3.6571,0.98466,0.0,,3.438,0.54849
0.14998,98626.487,3.6599,0.99715,,0.0,3.4838,0.54891
0.14998,98926.488,3.6628,1.0097,0.0,0.0,3.5295,0.54935
0.14998,99226.487,3.6656,1.0221,,,3.5753,0.54977
0.14998,99526.486,3.6686,1.0346,0.0,,3.6211,0.55022
0.14997,99826.487,3.6715,1.0471,,4.2209,3.667,0.55061
0.14998,100126.487,3.6745,1.0596,0.0,,3.7129,0.5511
0.14998,100426.489,3.6777,1.0721,0.0,0.0,3.7588,0.55158
0.14998,100726.488,3.6808,1.0846,,,3.8048,0.55205
0.14998,101026.488,3.684,1.0971,0.0,0.0,3.8508,0.55253
0.14997,101326.487,3.6872,1.1096,0.0,,3.8969,0.55297
0.14998,101626.489,3.6907,1.1221,,0.0,3.943,0.55353
0.14998,101926.488,3.6941,1.1346,,,3.9891,0.55404
0.14998,102226.488,3.6975,1.1471,0.0,,4.0353,0.55455
0.14998,102526.488,3.7012,1.1596,,0.0,4.0815,0.55511
0.14998,102826.488,3.7048,1.1721,0.0,0.0,4.1278,0.55565
0.14998,103126.487,3.7084,1.1846,,0.0,4.1741,0.55619
0.14998,103426.487,3.7122,1.1971,0.0,,4.2205,0.55676
0.14997,103726.487,3.716,1.2096,0.30429,0.0,4.2669,0.55729
0.14997,104026.487,3.7201,1.2221,,0.0,4.3134,0.5579
0.14997,104326.486,3.724,1.2346,0.0,,4.3599,0.55849
0.14998,104626.486,3.7282,1.2471,0.0,0.0,4.4064,0.55916
0.14998,104926.488,3.7325,1.2596,,,4.4531,0.5598
0.14997,105226.488,3.7366,1.2721,0.33243,2.9728,4.4997,0.56038
0.14998,105526.488,3.7409,1.2846,,,4.5464,0.56106
0.14998,105826.487,3.7452,1.2971,0.0,0.0,4.5932,0.56171
0.14997,106126.488,3.7495,1.3096,,,4.6401,0.56231
0.14998,106426.489,3.7538,1.3221,0.0,0.0,4.6869,0.56299
0.14997,106726.487,3.7581,1.3346,0.0,,4.7339,0.5636
0.14999,107026.487,3.7625,1.3471,,,4.7809,0.56434
0.14998,107326.488,3.7668,1.3596,0.34614,2.8747,4.8279,0.56494
0.14997,107626.488,3.7711,1.372,,,4.875,0.56555
0.14997,107926.486,3.7755,1.3845,0.0,0.0,4.9221,0.56621
0.14997,108226.487,3.7797,1.397,0.0,,4.9694,0.56684
0.14997,108526.488,3.784,1.4095,,0.0,5.0166,0.56749
0.14997,108826.487,3.7883,1.422,0.0,,5.0639,0.56813
0.14999,109126.488,3.7925,1.4345,,,5.1113,0.56884
0.14998,109426.487,3.7967,1.447,0.33797,2.9803,5.1587,0.56943
0.14998,109726.488,3.8008,1.4595,,,5.2062,0.57004
0.14998,110026.487,3.805,1.472,0.0,0.0,5.2537,0.57067
0.14998,110326.487,3.8091,1.4845,,,5.3013,0.57129
0.14997,110626.487,3.8132,1.497,0.0,,5.3489,0.57187
0.14998,110926.488,3.8172,1.5095,,3.0621,5.3966,0.5725
0.14998,111226.489,3.8213,1.522,0.0,,5.4443,0.57312
0.14998,111526.489,3.8253,1.5345,,0.0,5.4921,0.57372
0.14998,111826.486,3.8293,1.547,,,5.5399,0.57432
0.14997,112126.488,3.8332,1.5595,0.0,0.0,5.5878,0.57487
0.14997,112426.488,3.8372,1.572,,3.1246,5.6357,0.57546
0.14997,112726.488,3.8412,1.5845,0.0,,5.6837,0.57606
0.14998,113026.488,3.8452,1.597,,0.0,5.7317,0.5767
0.14998,113326.486,3.8492,1.6095,,,5.7798,0.5773
0.14997,113626.487,3.8531,1.622,0.0,0.0,5.8279,0.57785
0.14998,113926.488,3.8571,1.6345,,3.1289,5.8761,0.57849
0.14997,114226.488,3.8611,1.647,0.0,,5.9243,0.57905
0.14998,114526.486,3.8651,1.6595,,0.0,5.9726,0.57969
0.14998,114826.489,3.8691,1.672,,,6.0209,0.58029
0.14997,115126.488,3.8732,1.6845,0.0,0.0,6.0693,0.58086
0.14998,115426.488,3.8772,1.697,,3.0842,6.1177,0.5815
0.14998,115726.487,3.8814,1.7095,0.0,,6.1662,0.58213
0.14998,116026.487,3.8854,1.7219,,0.0,6.2147,0.58273
0.14998,116326.487,3.8896,1.7344,0.0,,6.2633,0.58336
0.14998,116626.489,3.8938,1.7469,,0.0,6.3119,0.58399
0.14998,116926.487,3.898,1.7594,0.0,,6.3606,0.58462
0.14998,117226.488,3.9021,1.7719,,2.9937,6.4094,0.58524
0.14997,117526.489,3.9063,1.7844,0.3311,,6.4582,0.58583
0.14997,117826.487,3.9102,1.7969,,0.0,6.507,0.58641
0.14998,118126.487,3.914,1.8094,0.0,,6.5559,0.58702
0.14998,118426.488,3.9177,1.8219,0.0,,6.6048,0.58758
0.14998,118726.488,3.9211,1.8344,,0.0,6.6538,0.58809
0.14998,119026.487,3.9244,1.8469,0.0,0.0,6.7028,0.58858
0.14997,119326.486,3.928,1.8594,0.0,,6.7519,0.58908
0.14997,119626.488,3.9312,1.8719,,0.0,6.801,0.58956
0.14997,119926.487,3.9345,1.8844,0.0,0.0,6.8501,0.59006
0.14998,120226.487,3.9379,1.8969,0.0,,6.8993,0.59061
0.14998,120526.488,3.9414,1.9094,,0.0,6.9486,0.59113
0.14998,120826.487,3.9449,1.9219,0.0,0.0,6.9978,0.59166
0.14998,121126.488,3.9485,1.9344,,0.0,7.0471,0.5922
0.14997,121426.488,3.9522,1.9469,0.0,3.3125,7.0965,0.59271
0.14997,121726.487,3.9561,1.9594,0.30521,,7.1459,0.5933
0.14998,122026.487,3.9603,1.9719,,0.0,7.1954,0.59397
0.14998,122326.487,3.9646,1.9844,0.0,,7.2449,0.59461
0.14998,122626.487,3.969,1.9969,,0.0,7.2945,0.59527
0.14997,122926.487,3.9735,2.0094,0.0,,7.3441,0.59591
0.14997,123226.487,3.9782,2.0219,0.0,,7.3938,0.59661
0.14997,123526.487,3.983,2.0344,,,7.4435,0.59733
0.14997,123826.489,3.988,2.0469,,,7.4933,0.59808
0.14998,124126.488,3.9931,2.0594,0.0,,7.5432,0.59889
0.14999,124426.489,3.9984,2.0718,0.0,,7.5931,0.59972
0.14998,124726.487,4.0038,2.0843,,,7.6431,0.60049
0.14998,125026.486,4.0091,2.0968,0.0,0.0,7.6932,0.60128
0.14998,125326.487,4.0146,2.1093,,0.0,7.7433,0.60211
0.14997,125626.488,4.0199,2.1218,,0.0,7.7935,0.60286
0.14998,125926.489,4.0253,2.1343,0.0,,7.8438,0.60371
0.14997,126226.488,4.0307,2.1468,0.0,,7.8941,0.60448
0.14998,126526.489,4.0361,2.1593,0.42892,0.0,7.9445,0.60533
0.14998,126826.487,4.0412,2.1718,0.0,0.0,7.995,0.6061
0.14998,127126.488,4.0464,2.1843,0.4143,0.0,8.0455,0.60688
0.14998,127426.489,4.0514,2.1968,,0.0,8.0961,0.60763
0.14998,127726.488,4.0562,2.2093,0.3933,0.0,8.1468,0.60835
0.14997,128026.487,4.061,2.2218,,0.0,8.1975,0.60903
0.14998,128326.487,4.0656,2.2343,0.0,0.0,8.2483,0.60976
0.14997,128626.487,4.0698,2.2468,0.0,,8.2991,0.61035
0.14998,128926.487,4.0737,2.2593,,0.0,8.35,0.61097
0.14997,129226.487,4.0771,2.2718,,3.446,8.4009,0.61144
0.14997,129526.488,4.08,2.2843,0.0,,8.4519,0.61188
0.14997,129826.487,4.0822,2.2968,,,8.5029,0.61221
0.14998,130126.486,4.084,2.3093,0.0,0.0,8.5539,0.61252
0.14997,130426.487,4.0856,2.3218,,,8.605,0.61272
0.14998,130726.487,4.0868,2.3343,0.0,7.6583,8.656,0.61294
0.14997,130966.487,4.0881,2.3443,0.0,0.0,8.6969,0.61309