File: Data/monotonic_segments/Cycle 295_discharge.csv
Current(A),Test_Time(s),Voltage(V),Discharge_Capacity(Ah),dV/dQ(V/Ah),dQ/dV(Ah/V),Discharge_Energy(Wh),Power(W)
-0.15002,14329.463,4.0691,0.40005,,13.23,1.6392,-0.61045
-0.15002,14689.463,4.0677,0.41505,,0.0,1.7002,-0.61024
-0.15002,15049.462,4.0658,0.43006,,0.0,1.7612,-0.60995
-0.15002,15409.462,4.0636,0.44506,,,1.8222,-0.60962
-0.15002,15769.462,4.0609,0.46006,,,1.8831,-0.60922
-0.15002,16129.463,4.0576,0.47506,,0.0,1.944,-0.60872
-0.15003,16489.465,4.0537,0.49006,0.21581,4.08,2.0049,-0.60818
-0.15002,16849.464,4.0493,0.50507,0.0,0.0,2.0657,-0.60748
-0.15002,17209.464,4.0448,0.52007,0.0,,2.1264,-0.6068
-0.15002,17569.463,4.0402,0.53507,,,2.187,-0.60611
-0.15002,17929.463,4.0351,0.55007,,0.0,2.2476,-0.60535
-0.15002,18289.462,4.03,0.56507,0.0,0.0,2.3081,-0.60458
-0.15002,18649.463,4.0245,0.58008,0.0,,2.3685,-0.60376
-0.15002,19009.464,4.0189,0.59508,,2.7253,2.4288,-0.60292
-0.15001,19369.462,4.0132,0.61008,,2.6021,2.4891,-0.60202
-0.15004,19729.462,4.0071,0.62508,0.0,,2.5492,-0.60123
-0.15002,20089.463,4.001,0.64008,,,2.6093,-0.60023
-0.15001,20449.462,3.9949,0.65509,,0.0,2.6693,-0.59927
-0.15002,20809.464,3.9886,0.67009,,2.3997,2.7292,-0.59837
-0.15001,21169.463,3.9822,0.68509,,,2.789,-0.59737
-0.15002,21529.462,3.976,0.70009,,0.0,2.8487,-0.59648
-0.15003,21889.463,3.9702,0.71509,0.0,,2.9083,-0.59565
-0.15002,22249.463,3.9643,0.7301,0.0,0.0,2.9678,-0.59472
-0.15001,22609.464,3.9585,0.7451,,2.6366,3.0272,-0.59381
-0.15003,22969.463,3.953,0.7601,,,3.0865,-0.59307
-0.15002,23329.462,3.9477,0.7751,,,3.1458,-0.59223
-0.15003,23689.463,3.9427,0.7901,,,3.205,-0.59152
-0.15001,24049.462,3.938,0.8051,,,3.2641,-0.59074
-0.15002,24409.464,3.9334,0.82011,,3.288,3.3232,-0.59009
-0.15002,24769.462,3.9288,0.83511,,3.3929,3.3821,-0.5894
-0.15002,25129.462,3.9246,0.85011,0.0,0.0,3.441,-0.58877
-0.15001,25489.464,3.9208,0.86511,,0.0,3.4999,-0.58816
-0.15002,25849.463,3.917,0.88012,,,3.5587,-0.58763
-0.15003,26209.462,3.9131,0.89512,,,3.6174,-0.58708
-0.15002,26569.463,3.9096,0.91012,,,3.6761,-0.58652
-0.15002,26929.462,3.9062,0.92512,,0.0,3.7347,-0.58601
-0.15002,27289.464,3.9029,0.94012,0.0,0.0,3.7933,-0.58551
-0.15003,27649.464,3.8995,0.95513,0.0,0.0,3.8518,-0.58504
-0.15002,28009.463,3.8959,0.97013,0.0,,3.9103,-0.58446
-0.15001,28369.463,3.8924,0.98513,0.0,0.0,3.9687,-0.5839
-0.15002,28729.463,3.8889,1.0001,0.0,0.0,4.0271,-0.58341
-0.15003,29089.462,3.8854,1.0151,0.0,,4.0854,-0.58293
-0.15002,29449.463,3.8815,1.0301,0.0,,4.1437,-0.5823
-0.15003,29809.464,3.8774,1.0451,0.0,0.0,4.2018,-0.58173
-0.15002,30169.464,3.8729,1.0601,,,4.26,-0.58101
-0.15002,30529.463,3.868,1.0751,,3.2215,4.318,-0.58028
-0.15002,30889.462,3.8629,1.0901,,,4.376,-0.57951
-0.15002,31249.462,3.8573,1.1051,,,4.4339,-0.57867
-0.15001,31609.463,3.8512,1.1201,0.0,0.0,4.4918,-0.57772
-0.15002,31969.464,3.8444,1.1351,0.0,,4.5495,-0.57674
-0.15002,32329.464,3.8377,1.1502,,,4.6071,-0.57573
-0.15002,32689.462,3.8308,1.1652,0.0,0.0,4.6646,-0.5747
-0.15002,33049.464,3.8241,1.1802,0.0,0.0,4.7221,-0.57369
-0.15001,33409.464,3.818,1.1952,,2.3555,4.7794,-0.57274
-0.15003,33769.464,3.8119,1.2102,0.0,0.0,4.8366,-0.5719
-0.15002,34129.462,3.8059,1.2252,0.0,0.0,4.8938,-0.57096
-0.15002,34489.464,3.8002,1.2402,0.0,,4.9508,-0.57011
-0.15002,34849.462,3.795,1.2552,,0.0,5.0078,-0.56933
-0.15003,35209.464,3.7897,1.2702,,0.0,5.0647,-0.56857
-0.15001,35569.464,3.7844,1.2852,,0.0,5.1215,-0.5677
-0.15002,35929.464,3.7794,1.3002,,,5.1782,-0.56699
-0.15002,36289.463,3.7745,1.3152,,,5.2349,-0.56625
-0.15001,36649.465,3.7697,1.3302,,,5.2915,-0.56549
-0.15002,37009.462,3.7648,1.3452,,0.0,5.348,-0.5648
-0.15001,37369.464,3.76,1.3602,,0.0,5.4044,-0.56404
-0.15003,37729.462,3.7549,1.3752,,0.0,5.4608,-0.56335
-0.15002,38089.462,3.75,1.3902,0.0,0.0,5.5171,-0.56258
-0.15002,38449.462,3.7453,1.4052,0.0,0.0,5.5733,-0.56187
-0.15002,38809.462,3.7404,1.4202,0.0,0.0,5.6295,-0.56113
-0.15003,39169.462,3.7354,1.4352,0.0,0.0,5.6855,-0.56042
-0.15002,39529.463,3.7302,1.4502,0.0,0.0,5.7415,-0.5596
-0.15002,39889.463,3.7252,1.4652,0.0,0.0,5.7975,-0.55885
-0.15002,40249.462,3.7203,1.4802,0.0,0.0,5.8533,-0.55812
-0.15002,40609.463,3.7155,1.4952,0.0,,5.9091,-0.5574
-0.15002,40969.464,3.7106,1.5102,0.0,,5.9648,-0.55666
-0.15002,41329.463,3.7058,1.5252,0.0,,6.0204,-0.55594
-0.15003,41689.462,3.701,1.5402,,,6.076,-0.55526
-0.15002,42049.464,3.6961,1.5552,,,6.1315,-0.55449
-0.15001,42409.464,3.6916,1.5702,,0.0,6.1869,-0.55378
-0.15002,42769.463,3.6872,1.5852,,0.0,6.2422,-0.55315
-0.15004,43129.463,3.6828,1.6002,,,6.2975,-0.55257
-0.15002,43489.464,3.6784,1.6152,,3.4681,6.3527,-0.55183
-0.15003,43849.462,3.6742,1.6302,,0.0,6.4079,-0.55124
-0.15002,44209.464,3.6702,1.6452,,,6.463,-0.5506
-0.15002,44569.462,3.6663,1.6602,,,6.518,-0.55002
-0.15003,44929.462,3.6623,1.6752,0.0,,6.573,-0.54945
-0.15002,45289.462,3.6585,1.6902,0.0,,6.6279,-0.54885
-0.15002,45649.464,3.6549,1.7052,0.0,,6.6828,-0.54831
-0.15003,46009.465,3.6513,1.7202,0.0,,6.7376,-0.5478
-0.15002,46369.463,3.648,1.7352,0.0,,6.7923,-0.54727
-0.15002,46729.463,3.6445,1.7502,0.0,,6.847,-0.54675
-0.15003,47089.463,3.641,1.7652,,0.0,6.9017,-0.54626
-0.15002,47449.463,3.6377,1.7802,,,6.9563,-0.54573
-0.15002,47809.463,3.6344,1.7952,0.0,,7.0108,-0.54523
-0.15001,48169.464,3.6313,1.8102,,0.0,7.0653,-0.54473
-0.15002,48529.463,3.6281,1.8252,0.0,,7.1198,-0.54429
-0.15001,48889.462,3.6247,1.8402,0.0,,7.1742,-0.54374
-0.15003,49249.463,3.6215,1.8552,0.0,,7.2285,-0.54333
-0.15001,49609.462,3.6185,1.8703,0.0,4.6723,7.2828,-0.54281
-0.15002,49969.464,3.6153,1.8853,0.0,0.0,7.3371,-0.54237
-0.15003,50329.462,3.6121,1.9003,,0.0,7.3913,-0.54192
-0.15002,50689.463,3.6087,1.9153,,0.0,7.4455,-0.54138
-0.15001,51049.464,3.6055,1.9303,,,7.4996,-0.54086
-0.15002,51409.462,3.6021,1.9453,,0.0,7.5536,-0.54039
-0.15002,51769.463,3.5988,1.9603,,0.0,7.6077,-0.53989
-0.15003,52129.462,3.5954,1.9753,0.0,,7.6616,-0.53942
-0.15002,52489.464,3.5919,1.9903,,0.0,7.7155,-0.53886
-0.15003,52849.465,3.5881,2.0053,,4.1984,7.7694,-0.53832
-0.15002,53209.463,3.5844,2.0203,,0.0,7.8232,-0.53773
-0.15002,53569.462,3.5806,2.0353,0.0,0.0,7.8769,-0.53716
-0.15002,53929.463,3.5769,2.0503,0.0,0.0,7.9306,-0.53661
-0.15001,54289.463,3.573,2.0653,,3.8527,7.9843,-0.53599
-0.15004,54649.465,3.5689,2.0803,,0.0,8.0378,-0.53548
-0.15002,55009.465,3.5648,2.0953,,,8.0913,-0.53479
-0.15001,55369.463,3.5606,2.1103,0.0,0.0,8.1448,-0.53413
-0.15002,55729.462,3.5565,2.1253,0.0,0.0,8.1982,-0.53355
-0.15003,56089.462,3.5521,2.1403,0.0,,8.2515,-0.53292
-0.15002,56449.462,3.5476,2.1553,0.0,,8.3047,-0.53221
-0.15001,56809.462,3.5429,2.1703,,3.2691,8.3579,-0.53147
-0.15003,57169.462,3.5382,2.1853,,3.2238,8.411,-0.53084
-0.15002,57529.464,3.5334,2.2003,0.31116,0.0,8.4641,-0.53008
-0.15002,57889.462,3.5288,2.2153,0.0,,8.5171,-0.52939
-0.15002,58249.462,3.5241,2.2303,0.0,,8.57,-0.52869
-0.15002,58609.462,3.5192,2.2453,,,8.6228,-0.52795
-0.15001,58969.462,3.5144,2.2603,,0.0,8.6756,-0.5272
-0.15,59329.462,3.5096,2.2753,,0.0,8.7283,-0.52644
-0.15002,59689.462,3.5049,2.2903,,0.0,8.7809,-0.52581
-0.15002,60049.464,3.5,2.3053,0.0,0.0,8.8334,-0.52507
-0.15003,60409.463,3.4949,2.3203,0.0,,8.8859,-0.52434
-0.15002,60769.463,3.4897,2.3353,0.0,0.0,8.9383,-0.52352
-0.15002,61129.462,3.4844,2.3503,0.0,0.0,8.9906,-0.52273
-0.15003,61489.462,3.4789,2.3653,,0.0,9.0428,-0.52194
-0.15002,61849.462,3.4729,2.3803,0.37906,2.5903,9.095,-0.521
-0.15003,62209.465,3.467,2.3953,0.0,,9.147,-0.52015
-0.15002,62569.464,3.4611,2.4103,0.0,0.0,9.199,-0.51923
-0.15001,62929.463,3.4549,2.4253,0.0,,9.2509,-0.51827
-0.15002,63289.462,3.4483,2.4403,0.0,0.0,9.3026,-0.51731
-0.15001,63649.464,3.4418,2.4553,,,9.3543,-0.5163
-0.15002,64009.462,3.4355,2.4703,,0.0,9.4059,-0.51539
-0.15002,64369.463,3.4297,2.4853,0.0,,9.4574,-0.51452
-0.15001,64729.464,3.4247,2.5003,0.0,0.0,9.5088,-0.51374
-0.15003,65089.464,3.4202,2.5153,0.0,,9.5602,-0.51313
-0.15001,65449.463,3.4161,2.5303,0.0,0.0,9.6114,-0.51245
-0.15001,65809.463,3.4122,2.5453,0.0,,9.6627,-0.51186
-0.15002,66169.463,3.4084,2.5603,0.0,,9.7138,-0.51133
-0.15002,66529.462,3.4045,2.5753,0.0,,9.7649,-0.51074
-0.15001,66889.463,3.4002,2.5903,,0.0,9.816,-0.51006
-0.15002,67249.462,3.3959,2.6053,,0.0,9.8669,-0.50945
-0.15002,67609.463,3.3915,2.6203,0.0,0.0,9.9179,-0.50879
-0.15001,67969.463,3.3867,2.6354,0.0,,9.9687,-0.50804
-0.15002,68329.463,3.3814,2.6504,0.0,,10.019,-0.50728
-0.15002,68689.463,3.3754,2.6654,0.0,0.0,10.07,-0.50638
-0.15001,69049.463,3.3688,2.6804,0.0,,10.121,-0.50535
-0.15003,69409.462,3.3613,2.6954,,,10.171,-0.5043
-0.15002,69769.462,3.3524,2.7104,0.58165,1.6125,10.222,-0.50293
-0.15001,70129.462,3.3412,2.7254,,1.3251,10.272,-0.50121
-0.15001,70489.464,3.3274,2.7404,0.0,1.0321,10.322,-0.49914
-0.15002,70849.463,3.3108,2.7554,1.1237,0.85846,10.372,-0.49669
-0.15002,71209.464,3.2909,2.7704,1.3723,0.71665,10.421,-0.4937
-0.15002,71569.462,3.2669,2.7854,,0.57877,10.47,-0.4901
-0.15003,71929.463,3.2376,2.8004,,0.47695,10.519,-0.48574
-0.15002,72289.463,3.2029,2.8154,2.4227,0.4144,10.567,-0.4805
-0.15001,72649.462,3.163,2.8304,2.82,0.35869,10.615,-0.47448
-0.15001,73009.462,3.1162,2.8454,3.2415,0.3022,10.662,-0.46746
-0.15002,73369.463,3.0605,2.8604,3.9822,0.25262,10.709,-0.45914
-0.15002,73729.462,2.9913,2.8754,5.0964,0.19314,10.754,-0.44875
-0.15002,74089.462,2.8993,2.8904,7.0995,0.13911,10.798,-0.43495
-0.15002,74449.464,2.7154,2.9054,21.207,0.046029,10.841,-0.40736
-0.15048,74681.365,2.4999,2.915,20.512,0.048667,10.866,-0.37618