File: Data/monotonic_segments/Cycle 520_charge.csv
Current(A),Test_Time(s),Voltage(V),Charge_Capacity(Ah),dV/dQ(V/Ah),dQ/dV(Ah/V),Charge_Energy(Wh),Power(W)
0.14999,977.665,4.2037,0.0292,-5.0442,-0.13021,0.12334,0.63051
0.14998,77474.422,3.1294,0.03999,4.0237,0.25024,0.12099,0.46935
0.14998,77834.423,3.1827,0.05498,3.3436,0.30273,0.16832,0.47734
0.14998,78194.422,3.2269,0.06997,,0.36392,0.21638,0.48397
0.14998,78554.422,3.264,0.08497,,0.42737,0.26505,0.48953
0.14997,78914.422,3.2966,0.09996,,0.47925,0.31425,0.49439
0.14999,79274.422,3.3255,0.11496,,0.54306,0.36389,0.49879
0.14998,79634.422,3.3507,0.12995,1.647,0.61914,0.41395,0.50254
0.14998,79994.423,3.3712,0.14494,,,0.46435,0.50561
0.14998,80354.422,3.3845,0.15994,,1.2362,0.51501,0.50761
0.14999,80714.423,3.3931,0.17493,0.0,,0.56583,0.50893
0.14998,81074.423,3.3996,0.18993,,,0.61675,0.50987
0.14999,81434.423,3.405,0.20492,,0.0,0.66777,0.51072
0.14998,81794.423,3.41,0.21991,0.0,0.0,0.71886,0.51143
0.14998,82154.422,3.4148,0.23491,0.0,0.0,0.77002,0.51215
0.14999,82514.422,3.4192,0.2499,,,0.82125,0.51285
0.14998,82874.422,3.4233,0.26489,,3.5647,0.87254,0.51343
0.14999,83234.422,3.4272,0.27988,,0.0,0.92389,0.51405
0.14998,83594.422,3.4313,0.29488,,0.0,0.97531,0.51463
0.14999,83954.422,3.4349,0.30987,,,1.0268,0.5152
0.14999,84314.423,3.4388,0.32486,,,1.0783,0.51579
0.14998,84674.422,3.443,0.33986,,,1.1299,0.51638
0.14998,85034.422,3.447,0.35485,,,1.1815,0.51698
0.14999,85394.422,3.4512,0.36984,0.0,0.0,1.2333,0.51765
0.14998,85754.422,3.4554,0.38483,0.0,,1.285,0.51824
0.14997,86114.422,3.46,0.39983,,0.0,1.3369,0.5189
0.14998,86474.423,3.4649,0.41482,,0.0,1.3888,0.51967
0.14998,86834.423,3.4702,0.42982,0.0,0.0,1.4408,0.52046
0.14997,87194.422,3.4758,0.44481,0.0,0.0,1.4929,0.52127
0.14998,87554.422,3.4816,0.4598,,,1.545,0.52217
0.14999,87914.422,3.4874,0.4748,,0.0,1.5973,0.52308
0.14998,88274.422,3.4935,0.48979,,2.4614,1.6496,0.52396
0.14998,88634.422,3.4996,0.50479,,,1.702,0.52487
0.14998,88994.422,3.5058,0.51978,,0.0,1.7545,0.5258
0.14998,89354.422,3.5118,0.53477,0.0,,1.8072,0.5267
0.14998,89714.423,3.5178,0.54977,0.40262,0.0,1.8599,0.5276
0.14998,90074.423,3.524,0.56476,0.0,2.4959,1.9127,0.52853
0.14998,90434.422,3.53,0.57976,0.0,,1.9655,0.52943
0.14998,90794.423,3.5359,0.59475,0.0,0.0,2.0185,0.53031
0.14998,91154.423,3.5416,0.60974,0.0,,2.0716,0.53117
0.14998,91514.423,3.5473,0.62474,0.0,0.0,2.1247,0.53202
0.14998,91874.423,3.5528,0.63973,,,2.1779,0.53285
0.14998,92234.423,3.5579,0.65473,0.35609,,2.2313,0.53361
0.14998,92594.422,3.5631,0.66972,0.0,,2.2846,0.53439
0.14997,92954.422,3.5684,0.68471,0.34355,2.9437,2.3381,0.53515
0.14998,93314.422,3.5733,0.69971,0.0,0.0,2.3916,0.53592
0.14998,93674.422,3.5781,0.7147,0.32461,,2.4453,0.53664
0.14997,94034.423,3.5825,0.7297,0.0,,2.4989,0.53727
0.14997,94394.422,3.5869,0.74469,0.0,,2.5527,0.53793
0.14998,94754.422,3.5911,0.75968,0.0,0.0,2.6065,0.53859
0.14997,95114.422,3.5952,0.77468,0.0,0.0,2.6604,0.53917
0.14999,95474.422,3.5991,0.78967,0.0,,2.7143,0.53983
0.14998,95834.422,3.6029,0.80467,0.0,,2.7683,0.54036
0.14999,96194.422,3.6064,0.81966,,,2.8224,0.54092
0.14998,96554.423,3.61,0.83465,,,2.8765,0.54143
0.14998,96914.422,3.6137,0.84965,,4.2293,2.9306,0.54198
0.14998,97274.422,3.6171,0.86464,,0.0,2.9848,0.54249
0.14998,97634.422,3.6204,0.87964,0.0,,3.0391,0.54299
0.14998,97994.422,3.6238,0.89463,0.0,4.458,3.0934,0.5435
0.14998,98354.422,3.6271,0.90962,0.0,0.0,3.1478,0.54399
0.14999,98714.422,3.6304,0.92462,0.0,,3.2022,0.54452
0.14998,99074.422,3.6335,0.93961,0.0,4.6892,3.2566,0.54495
0.14998,99434.422,3.6366,0.95461,0.0,0.0,3.3111,0.54542
0.14998,99794.422,3.6397,0.9696,,0.0,3.3657,0.54588
0.14998,100154.422,3.6431,0.98459,,0.0,3.4203,0.54639
0.14998,100514.423,3.6463,0.99959,,,3.4749,0.54687
0.14998,100874.423,3.6493,1.0146,,0.0,3.5296,0.54732
0.14998,101234.422,3.6525,1.0296,0.0,0.0,3.5843,0.5478
0.14998,101594.423,3.6558,1.0446,0.0,0.0,3.6391,0.5483
0.14998,101954.422,3.6593,1.0596,0.0,,3.694,0.54882
0.14998,102314.422,3.6626,1.0746,0.0,,3.7489,0.54932
0.14999,102674.422,3.666,1.0895,0.0,0.0,3.8038,0.54986
0.14997,103034.422,3.6693,1.1045,0.0,,3.8588,0.55028
0.14998,103394.423,3.6728,1.1195,0.0,,3.9138,0.55085
0.14998,103754.422,3.6766,1.1345,0.0,,3.9689,0.55142
0.14998,104114.422,3.6803,1.1495,,,4.0241,0.55197
0.14997,104474.423,3.684,1.1645,,,4.0793,0.55249
0.14998,104834.422,3.6878,1.1795,0.25317,,4.1346,0.5531
0.14998,105194.422,3.6918,1.1945,0.0,,4.1899,0.5537
0.14998,105554.423,3.696,1.2095,0.0,,4.2453,0.55433
0.14999,105914.422,3.7003,1.2245,,0.0,4.3007,0.55501
0.14998,106274.422,3.7046,1.2395,,,4.3563,0.55562
0.14998,106634.422,3.7089,1.2545,,3.374,4.4118,0.55626
0.14997,106994.422,3.7135,1.2695,,3.3033,4.4675,0.55691
0.14998,107354.423,3.7183,1.2845,0.30564,0.0,4.5232,0.55767
0.14998,107714.422,3.7231,1.2995,0.0,,4.579,0.55839
0.14996,108074.422,3.728,1.3145,0.32107,,4.6349,0.55905
0.14998,108434.422,3.7327,1.3295,0.0,,4.6908,0.55983
0.14998,108794.422,3.7377,1.3445,0.33193,,4.7468,0.56058
0.14998,109154.423,3.7427,1.3594,,,4.8029,0.56133
0.14999,109514.423,3.7481,1.3744,0.34011,,4.859,0.56218
0.14998,109874.423,3.7531,1.3894,0.0,,4.9153,0.56289
0.14997,110234.422,3.7582,1.4044,0.34319,,4.9716,0.56362
0.14998,110594.422,3.7633,1.4194,0.0,2.9172,5.028,0.56442
0.14998,110954.422,3.7687,1.4344,0.34391,2.9242,5.0844,0.56523
0.14998,111314.422,3.7737,1.4494,0.0,2.9235,5.141,0.56598
0.14998,111674.422,3.7789,1.4644,,2.9618,5.1976,0.56676
0.14999,112034.422,3.7839,1.4794,,2.9597,5.2543,0.56755
0.14997,112394.422,3.789,1.4944,,2.9739,5.3111,0.56824
0.14999,112754.422,3.7938,1.5094,,3.0239,5.3679,0.56903
0.14998,113114.423,3.7987,1.5244,,2.9933,5.4248,0.56973
0.14997,113474.422,3.8037,1.5394,,3.0208,5.4818,0.57044
0.14998,113834.422,3.8088,1.5544,,3.0192,5.5389,0.57124
0.14998,114194.422,3.8138,1.5694,,3.0001,5.5961,0.57199
0.14998,114554.423,3.8189,1.5844,,2.9818,5.6533,0.57276
0.14998,114914.422,3.8237,1.5994,,2.9828,5.7106,0.57348
0.14998,115274.423,3.8288,1.6143,,2.9537,5.7679,0.57424
0.14998,115634.422,3.8339,1.6293,,2.9279,5.8254,0.57501
0.14999,115994.422,3.8392,1.6443,,2.9194,5.8829,0.57584
0.14998,116354.423,3.8444,1.6593,,,5.9405,0.57658
0.14999,116714.422,3.8494,1.6743,,,5.9982,0.57737
0.14998,117074.422,3.8546,1.6893,,,6.056,0.57811
0.14998,117434.423,3.8599,1.7043,0.0,,6.1138,0.57891
0.14998,117794.422,3.8652,1.7193,0.0,,6.1717,0.5797
0.14998,118154.423,3.8704,1.7343,0.0,0.0,6.2297,0.58048
0.14998,118514.422,3.8755,1.7493,0.0,0.0,6.2878,0.58125
0.14998,118874.422,3.8806,1.7643,,0.0,6.3459,0.58201
0.14997,119234.422,3.8859,1.7793,,0.0,6.4041,0.58277
0.14998,119594.422,3.8909,1.7943,,0.0,6.4624,0.58356
0.14998,119954.422,3.8956,1.8093,,0.0,6.5208,0.58426
0.14998,120314.423,3.9001,1.8243,,0.0,6.5793,0.58494
0.14998,120674.422,3.9046,1.8393,,,6.6378,0.58561
0.14998,121034.423,3.9087,1.8542,,3.687,6.6963,0.58623
0.14997,121394.423,3.9122,1.8692,,0.0,6.755,0.58671
0.14997,121754.422,3.9157,1.8842,0.0,0.0,6.8137,0.58724
0.14998,122114.423,3.9192,1.8992,0.0,,6.8724,0.5878
0.14998,122474.423,3.9227,1.9142,0.0,,6.9312,0.58833
0.14998,122834.422,3.9262,1.9292,0.0,0.0,6.99,0.58885
0.14998,123194.423,3.9297,1.9442,0.0,,7.0489,0.58938
0.14998,123554.422,3.933,1.9592,0.0,,7.1079,0.58987
0.14998,123914.422,3.9368,1.9742,0.0,,7.1669,0.59044
0.14998,124274.422,3.941,1.9892,0.0,,7.2259,0.59107
0.14999,124634.423,3.9451,2.0042,0.0,0.0,7.2851,0.59173
0.14996,124994.423,3.9493,2.0192,0.0,,7.3442,0.59224
0.14998,125354.422,3.9539,2.0342,,3.3049,7.4035,0.59301
0.14998,125714.423,3.9587,2.0492,,3.1288,7.4628,0.59373
0.14999,126074.422,3.9639,2.0642,,2.9893,7.5222,0.59455
0.14998,126434.423,3.9689,2.0792,,2.8541,7.5817,0.59526
0.14998,126794.422,3.9745,2.0941,,,7.6412,0.5961
0.14998,127154.422,3.9802,2.1091,0.0,,7.7009,0.59695
0.14998,127514.422,3.9863,2.1241,0.0,0.0,7.7606,0.59787
0.14999,127874.422,3.9925,2.1391,0.0,,7.8204,0.59884
0.14998,128234.423,3.9985,2.1541,0.41494,2.3632,7.8803,0.5997
0.14998,128594.422,4.0049,2.1691,0.0,,7.9403,0.60065
0.14998,128954.422,4.0116,2.1841,,0.0,8.0004,0.60166
0.14999,129314.422,4.0181,2.1991,0.43234,0.0,8.0606,0.60267
0.14999,129674.422,4.0246,2.2141,0.0,2.3166,8.1209,0.60365
0.14999,130034.423,4.0307,2.2291,0.0,0.0,8.1813,0.60456
0.14999,130394.422,4.0369,2.2441,0.0,,8.2418,0.60549
0.14998,130754.422,4.0432,2.2591,,0.0,8.3024,0.6064
0.14998,131114.422,4.0489,2.2741,,2.5747,8.363,0.60725
0.14998,131474.422,4.0544,2.2891,,,8.4238,0.60808
0.14998,131834.423,4.0599,2.3041,0.0,,8.4846,0.6089
0.14998,132194.422,4.0651,2.3191,0.0,,8.5455,0.60968
0.14997,132554.422,4.0696,2.3341,0.0,,8.6065,0.61032
0.14998,132914.422,4.0738,2.349,0.0,3.4797,8.6676,0.61099
0.14998,133274.422,4.0775,2.364,0.0,0.0,8.7287,0.61154
0.14998,133634.422,4.0805,2.379,,,8.7898,0.61199
0.14999,133994.422,4.0826,2.394,,,8.851,0.61235
0.14998,134294.422,4.084,2.4065,0.0,,8.9021,0.61252