File: Data/monotonic_segments/Cycle 745_discharge.csv
Current(A),Test_Time(s),Voltage(V),Discharge_Capacity(Ah),dV/dQ(V/Ah),dQ/dV(Ah/V),Discharge_Energy(Wh),Power(W)
-0.14999,13096.735,4.0668,0.34739,0.0,0.0,1.4217,-0.60998
-0.14999,13456.737,4.0651,0.36239,0.0,0.0,1.4826,-0.60972
-0.14999,13816.736,4.0627,0.37738,0.0,,1.5436,-0.60936
-0.15,14176.737,4.0596,0.39238,0.0,,1.6045,-0.60894
-0.15,14536.734,4.0563,0.40737,,0.0,1.6653,-0.60845
-0.14999,14896.736,4.0528,0.42237,,4.1728,1.7261,-0.60788
-0.14999,15256.735,4.0488,0.43737,,0.0,1.7869,-0.60728
-0.14999,15616.734,4.0445,0.45236,,,1.8476,-0.60663
-0.14999,15976.737,4.04,0.46736,,0.0,1.9082,-0.60596
-0.14999,16336.737,4.0351,0.48235,,,1.9687,-0.60522
-0.14999,16696.735,4.0301,0.49735,,,2.0292,-0.60447
-0.14998,17056.735,4.0253,0.51234,,,2.0896,-0.60371
-0.14999,17416.737,4.02,0.52734,,,2.1499,-0.60296
-0.15,17776.737,4.0143,0.54233,0.0,,2.2102,-0.60215
-0.14999,18136.736,4.0087,0.55733,0.0,0.0,2.2703,-0.60126
-0.15,18496.735,4.0029,0.57233,,2.5376,2.3304,-0.60044
-0.14999,18856.737,3.9972,0.58732,,2.6169,2.3904,-0.59954
-0.15001,19216.736,3.9914,0.60232,,,2.4503,-0.59875
-0.15,19576.736,3.9854,0.61731,0.0,0.0,2.5101,-0.59781
-0.14998,19936.735,3.9793,0.63231,0.0,,2.5698,-0.59682
-0.15,20296.736,3.9734,0.6473,0.0,0.0,2.6294,-0.59601
-0.14999,20656.737,3.9679,0.6623,0.38644,2.6138,2.689,-0.59515
-0.14998,21016.735,3.9622,0.67729,0.0,2.6395,2.7484,-0.59425
-0.15,21376.737,3.9565,0.69229,,,2.8078,-0.59348
-0.15,21736.735,3.9512,0.70729,,,2.8671,-0.59268
-0.14999,22096.735,3.9462,0.72228,0.0,,2.9263,-0.59189
-0.14999,22456.736,3.9412,0.73728,0.0,0.0,2.9854,-0.59114
-0.14999,22816.735,3.9365,0.75227,0.0,,3.0445,-0.59044
-0.14999,23176.736,3.9317,0.76727,0.0,,3.1035,-0.58972
-0.14998,23536.735,3.9272,0.78226,,3.3613,3.1624,-0.589
-0.15,23896.735,3.9229,0.79726,,0.0,3.2213,-0.58844
-0.14998,24256.735,3.9189,0.81225,,,3.2801,-0.58776
-0.15,24616.737,3.9151,0.82725,0.0,0.0,3.3388,-0.58727
-0.14999,24976.735,3.9112,0.84225,0.0,0.0,3.3975,-0.58664
-0.14999,25336.736,3.9074,0.85724,0.24988,3.9749,3.4561,-0.58607
-0.15,25696.736,3.9036,0.87224,0.0,0.0,3.5147,-0.58554
-0.14999,26056.735,3.8997,0.88723,0.0,0.0,3.5732,-0.58492
-0.14999,26416.735,3.8957,0.90223,,,3.6316,-0.58432
-0.14998,26776.737,3.8917,0.91722,,,3.69,-0.58368
-0.15,27136.734,3.8873,0.93222,,3.4633,3.7483,-0.5831
-0.14999,27496.735,3.8825,0.94722,,3.2214,3.8066,-0.58234
-0.15,27856.734,3.8775,0.96222,0.32013,2.9868,3.8648,-0.58163
-0.14999,28216.735,3.8721,0.97721,0.0,2.8153,3.9229,-0.58078
-0.15,28576.737,3.8669,0.99221,,2.7793,3.9809,-0.58004
-0.14999,28936.735,3.8614,1.0072,,,4.0389,-0.57917
-0.14999,29296.735,3.8557,1.0222,0.0,0.0,4.0968,-0.57832
-0.14999,29656.735,3.8498,1.0372,0.0,0.0,4.1545,-0.57743
-0.15,30016.735,3.8442,1.0522,,,4.2122,-0.57663
-0.14998,30376.736,3.8386,1.0672,,0.0,4.2698,-0.57571
-0.14999,30736.736,3.8332,1.0822,,0.0,4.3274,-0.57494
-0.14999,31096.735,3.8278,1.0972,0.36273,,4.3848,-0.57413
-0.14999,31456.736,3.8223,1.1122,0.0,2.7921,4.4422,-0.57331
-0.14999,31816.737,3.817,1.1272,,2.8079,4.4995,-0.57251
-0.14999,32176.735,3.812,1.1422,,2.9023,4.5567,-0.57176
-0.14998,32536.736,3.8066,1.1572,,,4.6138,-0.57091
-0.15,32896.737,3.8015,1.1722,,,4.6709,-0.57023
-0.15,33256.736,3.7966,1.1872,,,4.7278,-0.56949
-0.15,33616.735,3.7915,1.2022,,,4.7847,-0.56873
-0.15,33976.736,3.7864,1.2172,,,4.8416,-0.56796
-0.15,34336.736,3.7813,1.2322,,,4.8983,-0.5672
-0.14999,34696.736,3.7764,1.2472,,,4.955,-0.56642
-0.14999,35056.736,3.7716,1.2622,,,5.0116,-0.5657
-0.14999,35416.736,3.7666,1.2772,,,5.0681,-0.56495
-0.15,35776.736,3.7615,1.2922,,,5.1246,-0.56423
-0.14999,36136.736,3.7564,1.3072,,,5.181,-0.56342
-0.15,36496.737,3.7514,1.3222,,,5.2373,-0.56271
-0.15,36856.735,3.7465,1.3372,,,5.2935,-0.56198
-0.15,37216.734,3.7414,1.3522,,,5.3496,-0.56121
-0.15,37576.736,3.7361,1.3672,0.0,,5.4057,-0.56042
-0.14999,37936.736,3.731,1.3821,0.0,,5.4617,-0.55961
-0.14999,38296.734,3.726,1.3971,0.0,,5.5176,-0.55886
-0.14999,38656.735,3.721,1.4121,0.0,,5.5735,-0.55811
-0.15,39016.736,3.7157,1.4271,0.0,,5.6292,-0.55736
-0.15001,39376.735,3.7107,1.4421,0.0,,5.6849,-0.55664
-0.15,39736.735,3.7059,1.4571,0.0,,5.7405,-0.55589
-0.15,40096.736,3.7011,1.4721,0.0,,5.7961,-0.55517
-0.15,40456.737,3.6963,1.4871,0.0,,5.8515,-0.55445
-0.14999,40816.736,3.6915,1.5021,0.0,,5.9069,-0.55369
-0.14999,41176.735,3.6868,1.5171,,3.2764,5.9622,-0.55298
-0.14999,41536.735,3.6826,1.5321,,0.0,6.0175,-0.55235
-0.15,41896.735,3.6782,1.5471,,,6.0727,-0.55173
-0.15,42256.734,3.6737,1.5621,,,6.1278,-0.55106
-0.14998,42616.735,3.6696,1.5771,,,6.1829,-0.55037
-0.14999,42976.736,3.6656,1.5921,,0.0,6.2379,-0.5498
-0.15,43336.735,3.6618,1.6071,,,6.2928,-0.54927
-0.14999,43696.736,3.6579,1.6221,0.26193,,6.3477,-0.54865
-0.14998,44056.735,3.654,1.6371,0.0,,6.4025,-0.54803
-0.14998,44416.736,3.6503,1.6521,0.0,,6.4573,-0.54747
-0.14999,44776.736,3.6467,1.6671,,,6.512,-0.54697
-0.14999,45136.736,3.6433,1.6821,,,6.5666,-0.54646
-0.14999,45496.735,3.6397,1.6971,,0.0,6.6213,-0.54592
-0.14999,45856.736,3.6361,1.7121,,0.0,6.6758,-0.54538
-0.15,46216.735,3.6327,1.7271,0.0,0.0,6.7303,-0.54491
-0.14999,46576.735,3.6292,1.7421,0.0,,6.7848,-0.54434
-0.14999,46936.736,3.6256,1.7571,,0.0,6.8392,-0.5438
-0.14999,47296.736,3.6221,1.7721,,4.273,6.8935,-0.54328
-0.14999,47656.735,3.6188,1.7871,,0.0,6.9478,-0.54278
-0.15,48016.737,3.6152,1.8021,0.0,,7.0021,-0.54228
-0.15,48376.734,3.6115,1.8171,0.0,,7.0563,-0.54173
-0.14999,48736.735,3.6079,1.8321,0.0,,7.1104,-0.54115
-0.14999,49096.736,3.6045,1.847,,0.0,7.1645,-0.54064
-0.15,49456.735,3.6008,1.862,,0.0,7.2185,-0.54012
-0.15,49816.735,3.597,1.877,,4.0691,7.2725,-0.53955
-0.14999,50176.736,3.5932,1.892,,0.0,7.3264,-0.53894
-0.15,50536.736,3.5896,1.907,,0.0,7.3803,-0.53844
-0.15,50896.736,3.5857,1.922,,0.0,7.4341,-0.53786
-0.14998,51256.736,3.5816,1.937,,,7.4879,-0.53717
-0.14999,51616.736,3.5776,1.952,0.26499,,7.5416,-0.5366
-0.14999,51976.734,3.5735,1.967,0.0,,7.5952,-0.53599
-0.14999,52336.735,3.5695,1.982,0.0,0.0,7.6487,-0.53539
-0.15001,52696.736,3.5652,1.997,,,7.7023,-0.53482
-0.14999,53056.736,3.5607,2.012,,0.0,7.7557,-0.53407
-0.14999,53416.734,3.5562,2.027,0.0,,7.8091,-0.53339
-0.15,53776.735,3.5518,2.042,,3.3333,7.8624,-0.53277
-0.15,54136.736,3.5473,2.057,0.30197,3.2541,7.9156,-0.5321
-0.15,54496.735,3.5427,2.072,0.0,0.0,7.9688,-0.53141
-0.14999,54856.735,3.538,2.087,0.0,,8.0219,-0.53066
-0.14999,55216.734,3.5332,2.102,,,8.0749,-0.52994
-0.15,55576.736,3.5283,2.117,,0.0,8.1279,-0.52925
-0.14999,55936.735,3.5236,2.132,,0.0,8.1807,-0.5285
-0.14999,56296.736,3.5188,2.147,,0.0,8.2335,-0.52778
-0.15,56656.737,3.5138,2.162,0.0,0.0,8.2863,-0.52707
-0.15001,57016.737,3.5086,2.177,0.0,0.0,8.3389,-0.52633
-0.15001,57376.736,3.5033,2.192,,0.0,8.3915,-0.52553
-0.14999,57736.734,3.4981,2.207,,0.0,8.444,-0.52468
-0.14999,58096.736,3.4927,2.222,,,8.4965,-0.52387
-0.14998,58456.735,3.4871,2.237,0.36938,2.6535,8.5488,-0.523
-0.14999,58816.736,3.4812,2.252,0.0,2.6393,8.6011,-0.52215
-0.15,59176.735,3.4754,2.267,0.0,,8.6532,-0.52131
-0.15,59536.736,3.4694,2.282,0.0,0.0,8.7053,-0.52041
-0.15,59896.735,3.4634,2.297,0.0,,8.7573,-0.51951
-0.14999,60256.734,3.4572,2.312,0.4104,0.0,8.8092,-0.51855
-0.14999,60616.736,3.451,2.327,0.0,,8.861,-0.51762
-0.14998,60976.735,3.445,2.342,0.0,0.0,8.9127,-0.51668
-0.14999,61336.736,3.4393,2.357,0.0,0.0,8.9643,-0.51586
-0.15,61696.736,3.4341,2.372,0.0,,9.0159,-0.51512
-0.15,62056.735,3.4294,2.387,0.0,,9.0674,-0.51441
-0.15,62416.736,3.4249,2.402,0.0,0.0,9.1188,-0.51374
-0.15,62776.735,3.4205,2.417,,0.0,9.1701,-0.51308
-0.14998,63136.737,3.4161,2.432,0.0,,9.2214,-0.51235
-0.15,63496.736,3.4117,2.447,0.0,3.4718,9.2726,-0.51176
-0.14999,63856.736,3.4072,2.462,0.29364,0.0,9.3237,-0.51105
-0.14999,64216.736,3.4027,2.477,0.0,,9.3748,-0.51037
-0.15,64576.734,3.3979,2.492,0.0,,9.4258,-0.50969
-0.14999,64936.735,3.3926,2.507,,,9.4767,-0.50886
-0.14999,65296.737,3.3869,2.522,0.36079,2.612,9.5275,-0.508
-0.14999,65656.736,3.3803,2.537,0.0,,9.5783,-0.50701
-0.15,66016.735,3.3731,2.552,,,9.6289,-0.50597
-0.14999,66376.737,3.3644,2.567,0.0,,9.6795,-0.50463
-0.15,66736.735,3.3542,2.582,,,9.7298,-0.50313
-0.14999,67096.735,3.342,2.597,0.0,0.0,9.7801,-0.50127
-0.15001,67456.736,3.3276,2.612,0.98768,,9.8301,-0.49917
-0.14999,67816.737,3.3105,2.627,0.0,0.8292,9.8799,-0.49654
-0.14999,68176.735,3.2901,2.642,0.0,0.69992,9.9294,-0.49348
-0.15,68536.736,3.266,2.657,1.651,0.58645,9.9785,-0.4899
-0.14999,68896.736,3.2386,2.672,,0.5256,10.027,-0.48576
-0.14999,69256.736,3.2073,2.687,2.1997,0.45968,10.076,-0.48106
-0.14999,69616.736,3.1708,2.7019,,0.38543,10.123,-0.47559
-0.14999,69976.736,3.1284,2.7169,,0.33259,10.171,-0.46923
-0.15,70336.736,3.0782,2.7319,,0.27701,10.217,-0.46173
-0.14999,70696.734,3.018,2.7469,4.2342,0.22842,10.263,-0.45267
-0.15,71056.734,2.9424,2.7619,5.5477,0.17673,10.308,-0.44136
-0.14999,71416.735,2.8346,2.7769,9.3298,0.1058,10.351,-0.42516
-0.14999,71776.735,2.6193,2.7919,16.634,0.05927,10.392,-0.39287
-0.15,71949.862,2.5,2.7991,16.171,0.061643,10.411,-0.375